Transmission rate explicitly defined as it changes, innoculation rate varies from 1 to 95 in the list, but are not explicitly stated for ease of copying and pasting
44.0667
40.2
38.6333
39.8667
39.7333
35.6333
38.1
37.5
39.5
34.8
34.3
39.4333
31.7667
33.0333
34.0667
31.0667
31.6667
29.9
29.5333
30.0333
32.8
31.6
27.0333
27.0667
28.2667
26.1333
25.5
23.2333
25.1667
23.7
23.1
23.4667
23
23.6667
21.5
21.3
22.3333
20.6667
21.1667
19.0333
21.1
18.9
18.4
19.4667
16.2667
15.4667
17.2667
16.2667
15.0333
14.2333
12.5
15.3
14.6333
14.3333
13.9667
11.6333
12.9333
12.2333
12.3
12.4333
11.0667
10.0667
8.9
10.3333
10.9
8.8
9.36667
8.9
7.93333
9
7.56667
7.66667
7.6
7.36667
7.1
6.3
5.83333
6.26667
4.93333
5.43333
5.4
4.3
4.4
4.13333
3.56667
4
2.8
3.5
2.26667
2.23333
1.8
2.16667
1.4
1.2
0.666667
175.967
158.933
153.3
149.967
154.867
148.6
135.4
134.433
126.467
124.167
124.033
116.5
111.633
118.933
112.7
112.167
107.2
101.267
104.033
97.6
99.3333
87.9333
93.5
83.3667
84.9667
78.7333
75.6333
71.1667
75.9
69
72.9
69.2667
58.8333
63.4
63.0333
58.1333
56.3
61.7
54.6333
51.8667
46.3
49.6667
47
48.8
47.5667
45.3
41.6667
39.3667
38.3
38.2333
36
37.8667
35.7333
34.9333
32.6
32.8
27.6333
30.5333
29.4333
27.8
25.2667
26.4333
26.6333
22.2
22.1333
22.5
22.7333
21.5333
19.1
18.0333
17.8667
17.7333
16.4667
16.2333
14.2
12.3667
14.6333
13.0333
11.2333
10.2
9.86667
10.2333
9
8.06667
7.73333
7.26667
7
5.46667
5.26667
4.76667
3.46667
3.23333
2.76667
2.46667
2.03333
490.7
475.1
431.667
435.6
425.733
407.433
390.267
364.167
348.833
344.5
325.6
311.467
314.867
304.9
271.533
251.667
250.967
257.367
244.467
242.3
220.567
231.933
213.833
193.1
186.233
177.567
174.667
180.667
165.367
148.133
153.667
145.933
144.467
145.967
130.2
127.867
116.133
117.733
103.533
102.833
109.333
100.333
95.1333
92.5333
94.4333
83.0333
73.2
77.9
74.0667
78.9333
69.7333
64.7667
65.0333
60.2667
61.8
56.7
53.8667
56.2
48.3333
47.5667
46.6667
45.0667
43.9333
42.7333
37.6667
38.3
35.5333
31.4667
33.0333
31.5333
29
29.2667
26.1667
23.6333
23.7667
24.5
21
18.6667
17.4
16.4667
16.1333
15.7333
12.7333
13.4667
11.4
9.4
10.7
8.36667
7.9
7.9
6.03333
4.56667
4.33333
3.33333
3.16667
1340.53
1179.3
1143.33
1071.7
1009
977.567
941.233
849.9
835.133
773.167
745.967
682.667
672.9
591.267
594.4
565.7
556.533
530.367
492.3
476.733
432.567
420.333
408.733
414.267
362.133
343.7
345.967
322.1
309.967
311.333
279.633
276
246.4
247.067
231.433
222.867
215.2
203.2
191.267
187.8
187.033
162.567
165.133
162.267
147.3
154.567
135.3
132.967
123.6
123.667
112.867
109.967
107.667
97.6333
92.7667
95
81.2333
80.8
81.6333
75.9667
70.0667
62.6
63.4667
61.5
57.5667
51.3333
50.5
51.8667
50.4
43.6667
42.5
39.0667
38.1667
34.3333
32.5
30.8333
27.4
27.2333
26.3667
26.4667
22.4
22.5333
18.1
17.6333
17.2
15.8333
12.7
12.0667
10.1333
9.4
9.3
7.73333
6.7
5.4
4.1
2870.33
2533.87
2449.4
2223.33
2141.13
1904.77
1893.07
1698.37
1553.17
1529.07
1383.23
1300.93
1186.97
1175.33
1103.93
1073.23
972.933
936.9
906.4
863.5
765
748.567
722.667
674.2
620.967
597.067
587.933
528.833
501.367
463.2
464.867
432.467
427.267
387.1
378.633
357.467
358.2
317.167
305.2
293.733
263.3
261.667
242.467
242.267
226.633
213.733
200.767
192.4
188.633
180.233
164.6
160.733
155.4
147.233
137.167
139.1
123.2
114.533
105.333
99.0333
96.3333
95.2
85.1667
80.4333
81.6333
76.5333
76.6
68.7
59.7333
64.2333
55.7
56.4667
52.1
47.7667
46.1
43.1333
37.1667
33.8333
34.9
33.3667
33
26.8333
22.9667
22.4333
20.5
19.1
16.5667
15.4333
12.8
13.6
10.9333
8.8
7.1
5.76667
4.23333
5198.33
4589.23
4394.3
4213
3717.23
3513.67
3277.63
3083.93
2752.4
2708.23
2480.27
2288.27
2136.93
1979.47
1854.27
1776.47
1560.87
1508.63
1430.73
1296.23
1213.83
1163.9
1110.03
1029.93
977.4
952.2
823.8
831.433
780.467
731.9
674.1
659.3
588.933
557
541.7
525.533
485.7
443.333
441.967
423.233
378.7
360.233
361.133
339.8
308.1
294.233
305.1
264.567
250.133
245.367
226.667
210.9
208.2
185.933
177.133
166.233
168.8
153.233
140.9
134
127.567
119
113.633
111.767
101.8
98.5
93.4333
87.9667
84.1667
76.3
71.2
66.6
65.6667
60.2333
55.6
53.3667
45.2
44.2667
41.1333
40.3
36
33.4667
31.4
27.1
25.1667
22.9
19.1
18.2333
16.8333
14.3
12.5333
10.2
8.36667
8.26667
5.73333
7384.7
6991.87
6393.7
6169.9
5593.53
5427.87
4903.8
4707.33
4248.13
4109.2
3605.77
3478.63
3165.37
3015.9
2806.77
2527.13
2368.87
2220.9
2160
1892.6
1830.9
1722.57
1631.23
1421.7
1410.1
1299.1
1239.07
1212.57
1107.97
1005.33
953.3
889.6
856.5
804.167
720.833
686.633
656.067
639.167
595.967
563.233
517.267
499.533
466.233
437.533
424.233
391.8
349.4
348.167
327.3
308.6
292.367
284.433
258.7
256.9
225.6
214.1
200.833
190.633
185.833
173
163.367
153.467
139.733
138.467
126.467
125.433
115.833
106.667
95
90.7333
88.5333
78.8
77.9333
66.4
62.2
60.7667
58.7333
58.0667
49.3333
45.4
39.5333
35.9667
37.5
32.3667
27.9
24.6667
23.7667
19.7333
19.7333
15.5333
13.1667
12.5667
9.43333
8.36667
6.8
9098.03
8772.33
8394.3
7904.17
7222.53
6845.27
6589.27
6153.97
5760.73
5364.87
4932.73
4664.13
4275.1
3816.1
3724.33
3406.33
3182.57
2952.73
2766.63
2618.23
2445.73
2311.17
2069.73
1942.37
1814.47
1710.5
1581.27
1495.27
1454.2
1321.3
1208.53
1154.67
1067.47
1027.1
958.733
906.167
817.533
810.6
759.6
719.267
645.967
628.667
591.1
559.767
509.267
466.833
466.3
427.967
394.8
382.8
375
332.6
325.2
314.933
286.333
270.267
262.633
238.533
225.233
196.9
195.6
184.767
170.1
164.067
155.967
141.833
137.333
126.467
114.4
108.167
103.933
95.3
93.5667
83.2
76.1667
73.5667
69.7667
61.9333
56.8667
53.5333
48.3333
44.7333
37.5
37.9
33.9667
30.7667
26.5333
24.1333
20.5667
19
15.8667
12.8333
12.3333
9.1
7.26667
9575.9
9369.43
9161.1
8787.07
8468.03
8209.8
7844.67
7402.27
7054.33
6476
6186.7
5832.27
5265.6
5108.6
4870.63
4404.17
4166.07
3844.03
3496
3258.13
2994
2755.2
2751.13
2441.53
2371.17
2118.7
1954.4
1866.8
1777.87
1663.77
1549.63
1422.63
1353.37
1292.57
1151.83
1124.37
1043.4
981.733
935.933
883.333
812.367
758.967
699.033
672.233
598.2
567.867
538.167
507.533
505.133
458.7
431.633
391.067
379.533
351.933
322.433
310.5
297.167
283
249.667
244.9
239.933
209.7
207.967
192.4
176.8
164
155.6
139.7
137.867
125.433
116.833
110.667
97.2333
95.5333
90.5333
83.0333
74.4
70.5333
66.8333
60.0333
55.7333
49.5333
45.3
41.2
35.6667
33.4333
28.7333
27.8
22.1667
22.1333
16.9333
14.8333
12.4333
9.9
7.66667
9776.37
9582.7
9384.53
9305.8
9121.37
8905.63
8525.7
8112.73
7675.37
7507.03
7062.13
6925
6400.87
5944.9
5584.3
5165.33
5085.73
4619.63
4237.7
4076.43
3584.1
3382.97
3299.37
2848.07
2768.97
2619.53
2467.17
2331.1
2164.37
2017.1
1861.03
1748.37
1634.47
1458.73
1448.43
1350.93
1199.5
1176
1105.47
967.767
924.833
852.133
803.467
778.9
711.2
652.833
632.5
598.767
555.3
519.7
483.5
452.8
426.567
413.833
378.167
344.033
349.8
313.967
313.633
277.1
249.333
246.6
219.133
219.9
202.5
189.1
170.1
164.667
148.7
142.833
132.933
123.567
116.5
112.5
98.7333
89
89.4
78.4667
73.3667
68.4333
61.8333
53.3333
50.4
43.2667
44.5667
36.9667
32.0667
28.2333
25.8667
22.7667
20.5333
15.3667
13.4667
11.1
9.3
9814.4
9706.27
9588.4
9448.53
9279.6
9126.63
8935.77
8704.93
8299.7
8009.6
7664.87
7378.13
6976.27
6785.8
6422.63
6075.57
5526.13
5035.97
4921.63
4628.83
4348.97
4022.13
3778.43
3498.8
3335.67
3116.2
2785.03
2665.77
2409.77
2290.7
2137.77
2006.17
1852.1
1770.63
1656.93
1498.27
1424.43
1346.1
1247.97
1133.73
1066.87
1048.7
945.867
888.233
816.567
787.7
740.733
704.867
635.367
592.767
568
505.767
498.733
460.267
424.267
387.4
378.9
348.8
324.2
307.667
293.367
274.8
253.033
230
214.367
214.367
189.533
172.133
172.867
155.567
145.333
137.633
129.9
116.867
108.067
102.9
97.6
81.5
75.8
74.5
69.5333
57.5
54.7333
48.1667
46.0333
39.8
33.8
31.7667
27.4667
24.6
21.1333
16.7667
14.4
11.6
9.63333
9842.07
9738.2
9610
9525.63
9407.2
9267.3
9130.07
9053.27
8762.87
8349.4
8173.1
8026.97
7512.47
7131.7
6902.4
6406.2
6031.17
5880.77
5181.47
5072.3
4726.27
4486.5
4226.73
3931.17
3651.73
3334.07
3092.3
2918.2
2777.8
2590.7
2421.27
2275.17
2143.1
1897.7
1786.17
1706.97
1631.9
1503.4
1383.8
1318.63
1203.37
1131.03
1051.43
1033.37
935.333
825.367
797.967
746.9
722.833
638.067
628.633
574.133
540.267
505.333
493.1
442.633
424.167
375.867
381.433
333.8
314.633
298.667
276.167
265.267
248.433
219.733
215.467
194.033
177.633
171.567
158.1
151
132.667
127
112.867
104.1
100.033
93.2667
85.3667
75.7333
73.1333
66.3
58.9
50.9667
50.5
41.0667
36.8333
34.5333
29.2667
24.8333
22.2333
18.8
16.8333
12.9333
9.2
9846.4
9746.53
9649.7
9522.77
9443.03
9305.3
9152.7
8986.93
8825.13
8700.87
8541.4
8114.63
7911.17
7737.87
7384.23
6975.67
6713.9
6179.33
5822.5
5549.93
5297.8
5030.7
4682.63
4317.87
4149.73
3852.03
3564.9
3271.83
3065.77
2939.13
2618.2
2494.77
2373.4
2223.57
2010.13
1912.53
1765.37
1622.2
1523.67
1458.77
1376
1233.87
1152.17
1074
1047.27
947.133
898.3
851.967
790.7
717.867
661.1
632.767
610.167
561.8
530.4
488.133
456.733
426.433
401.333
365.067
342.333
319.933
303.667
275.467
262.567
242.567
217.767
216.2
188.967
174.033
174.6
154.767
148.433
135.433
125.433
117.2
109.867
98.3
89
80.7667
79.1667
68.0667
59.9333
59.4333
49.6333
46.3
43.1333
36.7333
34.7667
25.9
24.5333
19.5
16.3667
13.5
8.93333
9848.67
9749.9
9652.6
9535.43
9441.8
9320.03
9198.23
9081.63
8799.2
8803.83
8706.63
8376.57
8151.67
7784.13
7421.03
7397.63
6935.6
6710.6
6312.5
5801.97
5667.33
5200.43
4888.73
4651.87
4450.3
4019.87
3933.67
3459.37
3280.77
3059.63
2900.23
2711.37
2621.43
2340.07
2207.97
2013.1
1974.1
1778.5
1641.87
1538.63
1472.8
1389.37
1253.67
1179.67
1112.27
1002.4
968.867
898.067
833.3
798.267
737.467
678.7
673.667
608.633
556
503.433
479.433
441.867
434.333
396.467
369.767
358.733
324.167
308.9
280.567
251.333
246.433
218.767
213.567
197.833
174.733
167.567
162.633
142.033
133.5
121.867
109.2
104.4
92.8667
85.5667
79.7667
72.6333
66.3333
57.6667
54.9333
45.5
41.4667
38.3333
33.5667
27.8
25.4
21.8333
17.3667
13.0667
10.6333
9849.77
9751.73
9655.1
9557.67
9462.53
9368.27
9248.5
9125.77
8917.87
8846.57
8753.3
8356.97
8274.27
8087.93
8014.13
7667.03
7234.43
7064.83
6564.93
6193.6
5854.73
5819.77
5372.9
4882.67
4613.37
4261.23
3954.37
3844.33
3480
3263.83
3071.83
2880.13
2726.77
2522.8
2393.43
2207.4
2088.77
1970.83
1837.03
1694.87
1569.83
1457.3
1387.73
1280.63
1170.97
1091.07
977.533
944.967
937.933
866.8
779.867
723.967
698.567
646.367
580.233
550.8
512.433
480.3
457.167
426.033
403.233
373.667
337.867
325.467
295.633
279.8
256.8
245.6
217.167
205.5
190.267
171.733
166.767
151.467
141.433
133.067
119.8
105.4
107.433
94.1
81.3
72.6667
71.2333
61.3333
55.0667
47.4667
44.8667
39.9333
36.9
29.9
24.2333
21.5333
18.0667
14.4333
10.9333
9850.17
9752.17
9655.1
9558.57
9465
9348.57
9237.07
9154.83
8994
8905.23
8688.2
8655.4
8329.5
8126.87
7783.87
7881.53
7455.47
7005.77
6893.4
6553.67
6251.97
5592.77
5273.8
5206.73
4799.67
4503.57
4303.53
4111.17
3761.4
3568.87
3250.13
3148.27
2855.4
2677.4
2584.03
2340.53
2262.57
2082.43
1955
1818.77
1705.1
1552.03
1420.47
1339.33
1260.9
1183.43
1115.83
1021.17
986.667
888.467
842.933
773
720.333
665.7
630.033
588.3
544.533
508.667
481.3
437.767
429.333
377.933
374.967
356
302.2
306.867
258.867
248.3
239.133
210.167
205.333
184.367
170.367
166.9
146.8
137.1
126.833
116.633
107.667
100.667
86.7333
81.4
76.1667
67.8667
58.8667
52.9667
44.9667
42.9333
35.5
31.0333
27
21.2
19.5333
13.6667
11.2333
9851.17
9752.87
9655.47
9559.2
9446.63
9370.8
9276.87
9172.57
9065.7
8818.63
8842.1
8719.23
8613.5
8266.8
8036.47
7712.77
7391.73
7564.2
6889.53
6677.8
6467
5915.37
5966.8
5502.33
5014.93
4686.1
4372.07
4149.83
4118.77
3706.7
3577
3272.7
3143.13
2820.9
2672.27
2485.67
2424.2
2166.53
2035.63
1828.27
1715.43
1635.27
1496.6
1423.97
1312.73
1260
1122.2
1079.73
1024.13
946.7
847.133
833.467
791.933
715.267
659.933
623
565.533
546.633
520.533
471.933
438.533
399.533
381.067
353.667
321
301.933
294.933
267.267
244.3
223.233
208.267
201.4
186.367
171.2
154.2
142.933
128.367
118.7
109.633
99.6
97.9
84.2
71.1
71.6667
61.1333
51.7667
45.4667
41.4667
37.5333
33.5
27.6
24.8333
18.9
16.8
11.6
9851.27
9752.93
9655.6
9558.83
9434.87
9371.1
9257.5
9159.1
9032.53
8985.8
8916.37
8652.17
8623.77
8520.93
8185
7919.93
7679.53
7485.67
7188.03
6939.37
6423.97
6471.8
5714.13
5513.63
5389.03
4850.5
4771.37
4285.43
4096.3
4055.97
3530.43
3335.03
3156.67
2989.87
2829.27
2605.23
2408.43
2327.7
2133.97
1993.4
1869.57
1762.3
1656.7
1518.9
1454.8
1370.03
1182.3
1145.73
1046.87
970.1
918.3
861.767
832.167
752.433
708.433
659.867
602.933
584.7
542.567
486.567
458.1
434.2
400.5
371.067
342.267
326.8
306.033
291.2
251.6
234.533
219.5
195.133
186.267
181.267
166.333
145.033
135.767
122.933
114.8
108.433
95.5
87.6667
76.5
69.0333
64.1667
55.3333
49.9
45.6667
37.8667
32.8
29.3333
24.6333
19.1667
16.1667
11.6667
9850.93
9753.23
9655.7
9559.63
9464.97
9371.2
9257.73
9160.8
9094.93
9001.83
8875.47
8707.17
8599.73
8364
8325.93
8107.47
7946.9
7400.57
7470.13
6686.43
6843.33
6685.97
6399.17
5718.03
5473.03
5378.6
4990.57
4652.3
4179.9
3943.2
3798.7
3517.03
3451.13
3101.07
2889.47
2654.6
2600.67
2414.93
2245.37
2172.57
1968.73
1847.63
1746.23
1572.97
1545.2
1374.23
1258.67
1206.6
1106.4
1062.5
961.6
904.733
849.767
811.5
733.633
677.167
608.867
595.4
572.9
513.933
482.767
451.367
414.833
378
363.633
329.533
303.8
285.567
257.567
244
225.1
213.333
190.4
179.767
163.933
154.833
140.267
127.9
118.733
106.9
97.2333
94.1
86.3667
74.6667
61.9333
56.5333
50.6
45.3667
40
33
27.7667
24.2333
19.1667
16.9667
11.2333
9851
9752.7
9655.6
9559.07
9465.27
9369.9
9238.23
9164.5
9090.6
8974.47
8887.23
8802.9
8645.4
8519.53
8111.83
8179.73
7838.87
7582.2
7576.3
7418.73
6615.17
6697.27
6474.1
6074.37
5630.17
5403.07
4997.57
4825.7
4346.9
4141.37
4066.7
3726.9
3360.17
3178.5
3089.4
2820.27
2616.17
2499.6
2297.37
2150.13
2028.23
1851.1
1781.1
1607.3
1469.7
1412.3
1266.8
1278.43
1179.27
1068.8
980.9
945.2
883.167
819.067
781.7
690.433
667.2
606.267
569.5
535.233
497.367
453.633
417.8
399.7
353.5
332.733
325.633
300.5
275
252.8
244.433
219.7
200.1
190.767
172.7
157.067
146.933
129.667
115.367
113.9
102.7
93
84.2333
72.9
70
58.7667
50.3333
46.4333
39.8
33.5667
28.9333
24.4
20.6667
15.4333
12.2333
9851.3
9753.1
9656.43
9560.77
9465.23
9370.27
9279.2
9112.83
9063.6
8975.63
8839.47
8729.1
8666.63
8408.2
8307.4
8211.8
7806.63
7668.07
7795.93
7221.17
6869.03
6741.23
6451.6
6315.67
5708.57
5290.97
5093.73
4747.23
4933.73
4300.93
4180.33
3563.33
3495.8
3276.6
3119.5
2989.1
2737.17
2642.63
2396.93
2245.5
2136.3
2018.57
1816.87
1706
1614.17
1470.6
1391.67
1309.6
1192.47
1091.57
1044.93
959.267
923.3
843.9
785.7
741.833
694.967
634.567
597.5
553
505.667
500.933
427.933
415.4
400.7
343.2
325.9
313.7
289.867
255.267
241.1
230.5
214.567
191.567
176.567
163.533
156.667
136.067
125.433
113.633
105.867
94.4667
84.2333
77.3333
71
60.4
52.8
45.6333
43.6667
34.8
31.0667
27.8333
20.1333
16.3
13.6667
9850.8
9752.83
9655.1
9561.2
9463.9
9370.13
9277.87
9184.73
9063.5
8966.93
8901.77
8811.4
8690.27
8605.83
8227.57
8286.17
8077.77
7863.97
7607.87
7275
7035.97
6702.23
6652.67
6322.8
5956.07
5880.7
5301.33
4998.03
4784.9
4348.7
4275.87
3837.5
3639.97
3489.8
3202.07
3074.4
2827.9
2630.5
2519.7
2276.97
2093.13
1958.2
1889
1717.2
1652.4
1523.87
1420.33
1335.97
1212.4
1176.17
1050.8
1013.13
911.833
872.8
783.333
708.7
708.767
658.533
614.133
565.1
529.2
487.2
448.367
429.533
397.133
349.9
341.2
315.5
290.067
268.367
234.8
240.933
213.833
192.9
186.433
175.7
157.7
144.033
127
116.167
98.6667
102.767
94.7
78.1333
71.4
65.4333
57.3667
47.7667
44.6
37.1333
29.0333
27.2
20.6
17.7333
13.1333
9850.97
9752.9
9654.9
9560.8
9464.53
9370.57
9279.33
9185.77
9095.53
9004.27
8917.2
8789.8
8650.3
8610.5
8280.33
8141.13
8057.63
7996
7718.8
7497.73
7167.97
7335.67
6708.9
5925.8
6510.37
5490.4
5406.27
4988.27
4792.97
4527.87
4193.87
3906.17
3669.33
3617.43
3140.47
3016.17
2816.93
2714.67
2516.2
2342.2
2232.73
2041.27
1911.33
1841.13
1706.47
1560.57
1478.1
1322.2
1285.3
1201.97
1107.5
1016.77
957.667
863.233
801.933
774.033
711.7
672.867
639.567
584.9
543.2
511.367
465.433
429.467
403.133
368.3
338.367
326.7
298.1
275.367
266.367
241.4
211.667
199.6
191.167
173.5
155.367
140.6
131.567
122.933
108.1
102.9
87.6333
80.5
76.6
63.7667
55.5
50.1333
43.9333
36.6333
32.8
25.9
20.1
18.4333
12.7667
9851.3
9752.93
9656.03
9560.03
9465.4
9370.27
9275.2
9186
9003.9
9003.3
8851.43
8788.73
8688.4
8597.83
8426.57
8275.3
8125.73
7948.4
7716.6
7451.13
7498.93
6986.07
6442.73
6645.27
6160.07
5766.03
5204.33
5024.77
4782.87
4526.6
4225.8
4088.53
3769.17
3594.3
3303.37
3144.5
2941.77
2714.2
2611.97
2467.6
2249.73
2175.07
1943.5
1819.8
1760.07
1543.27
1482.37
1392.1
1308.9
1228.6
1134.2
1055.27
955.833
910.4
865.633
781.833
713.667
649.8
656.9
576.167
560.633
510.5
504.3
441.767
412.533
393.3
367.2
320.733
307.533
285.4
262.067
244.567
221.9
205.867
181.467
172.533
161.067
145.133
136.267
125.267
113.833
102.933
94.9
77.0333
75.7667
59.3333
55.0333
50.5333
45.2667
39.8667
33.1667
26
23.2
19.5667
14
9850.97
9752.97
9656.3
9560.1
9464.9
9372.13
9279.1
9156.93
9094.27
8992.93
8917.1
8790.67
8736.3
8560.77
8421.43
8328.03
8167.83
7682.2
7720.5
7228.4
7360.83
7091.83
6987.1
6693.5
5977.17
5699.83
5559.77
5734.17
5122.37
4622.77
4272.17
4026.43
3894.27
3556.2
3398.83
3213.13
3028.3
2800.87
2700.17
2525.23
2299.67
2177.57
2042.9
1850.93
1779.6
1674.97
1551.33
1483.83
1326.13
1196.8
1138.47
1063.8
1026.73
943.367
879.667
763.767
755.5
702.367
649.767
608.733
567.8
538.5
491.767
451.967
413
396.3
366.233
339.367
319.3
272.133
267.367
242.133
221.367
219.3
189.067
175.5
156.7
148.1
135.167
131.567
112.5
103.233
93.2667
81.1667
73.9667
68.3
60.0333
53.7667
46.2667
38.2333
31.9
29.4333
21.8333
17.4333
13.0667
9851.17
9753.87
9655.83
9559.5
9465.97
9370.6
9277.9
9187.63
9094.83
9005.27
8917.1
8733.1
8612.27
8478.43
8425.07
8414.3
8249.43
8074.23
7617.47
7550.9
7850.3
7329.27
7059.6
6846.23
6625.87
6076.7
5741.53
5513.37
5134.13
4812.67
4770.33
4394.3
3903.83
3704.03
3321.03
3220.07
3095.87
2936.7
2658.93
2495
2395.37
2214.73
2061.47
1888.23
1842.97
1694.47
1579.43
1435.63
1354.37
1267.93
1176.03
1126.5
1016.63
949.9
900.467
827.833
788.933
695.233
679.9
614.867
568.533
512.2
488.467
460.867
411.133
391.733
376.633
352.1
324.9
284.2
272.433
247.6
224.833
214.067
196.133
177.567
169.367
158.5
141.267
123.7
114.2
100.667
93.2667
87.2667
75.6667
66.7
59.7
50.0667
48.2667
41.8667
34.6667
27.9
24.1667
16.0667
14
9851.13
9752.93
9656.13
9558.8
9465.5
9371.2
9279.27
9185.33
9094.07
9005.17
8917.17
8827
8560.63
8619.57
8492.37
8226.8
8222.73
8059.43
7926.47
7605.17
7517.67
6963.43
7003.37
6766.57
6170.23
5963.03
6182.9
5679.03
4992.27
5151.57
4568.1
4228.33
4082.27
3709.3
3597.87
3229.53
3135.03
2935.47
2764.53
2567.93
2459.23
2326.9
2109.43
1942.6
1833.53
1764.37
1633.2
1511.43
1399.87
1343.67
1223.3
1136.87
1017.73
986.1
927.467
801.433
789.7
732.867
676.267
625.967
573.1
532.533
498.633
456.5
453.667
410.633
386.967
344.033
326.267
294.533
270
253.233
244.433
209.467
211.033
183.467
162.9
150.533
143.333
128.367
111.567
110.133
95.3
86.8667
79.6667
68.2333
58.9
53.4333
43.9
39.8667
32.3
29.7667
22.6333
18.8333
12.4667
9851.1
9752.97
9656.53
9560.03
9465.33
9370.1
9279.7
9186.2
9094.67
9005.7
8916.63
8828.8
8713.5
8653.97
8573.7
8390.97
8268.67
7985.17
7887.13
7671
7406.97
7465.27
6800.3
6665.43
6775.07
5954.73
5666.47
5600.17
5214.27
4991.5
4668.1
4362.27
4052.37
3696.43
3644.4
3368.63
3169.4
3004.53
2756.13
2570.6
2514.57
2271.5
2062.27
2002.03
1846.9
1754.57
1600.97
1503.6
1398.77
1348.07
1223.67
1131.9
1061.23
997.767
916.3
870.767
779.267
716.533
693.733
665.767
618.1
561.367
514.867
487.833
430.233
409.633
369.033
358.933
323.3
311.3
270.267
252.367
236.367
219.267
199.4
180.233
176.233
153.9
144.233
125.833
116.5
107.333
93.9667
86.3
75.2333
67.7
64.2
55.4667
44.5333
39.7333
35.1333
28
24.6667
19.2333
12.9667
9851.27
9753.13
9656.87
9559.77
9467
9371.9
9279.23
9186.1
9060.97
8975.63
8917.77
8828.1
8657.5
8618.23
8472.4
8442.13
8124.83
7928.9
7920
7809.5
7608.1
7234.9
6920.03
6937.73
6524.6
6280.7
5854.53
5821.03
5280.5
4804.93
4792.67
4275.8
4209.33
3837.3
3780.6
3305.2
3196.2
2996.33
2779.77
2743
2501.73
2327.2
2212.77
1992.67
1900.37
1745.37
1693
1558.17
1454.43
1305.83
1223
1214.4
1102.67
1038.8
917.667
867.267
819.967
755.633
703.167
651.433
604.9
566.967
501.467
493.433
447.9
403.867
374.933
355
331.933
307.233
282.867
264.067
233.133
221.133
207.033
190.4
169.4
158.567
141.467
130.4
122
105.233
94.5
89.6333
80.7667
68.4667
65.7
56.1667
45.7
40.6667
34.7
29.5333
22.9667
20.0333
14.4
9851.07
9753.8
9656.4
9559.4
9465.03
9371.83
9276.97
9186.5
9094.53
9003.2
8916.57
8830.7
8703.4
8610.4
8573.8
8328.6
8223.87
8103.1
7875.73
7728.27
7696.67
7165.53
6861.8
7176.73
6649.33
6268.9
5764.03
5612.1
5153.2
4983.37
5202.07
4198.2
4117.73
3698.43
3643.43
3475.53
3178.37
3022.53
2767.87
2663.97
2549.1
2383.93
2327.4
2080.23
1898.63
1764.9
1711.63
1557.93
1476.83
1372.67
1265.17
1176.1
1093.13
1021
973.733
846.667
821.967
756.8
709.833
658.333
622.867
572.933
523.767
498.933
439.333
413.933
373.8
359.7
336.967
309.667
273.067
252.867
251.433
222.433
205.933
196.4
175.8
162.233
152.2
132.967
119.7
112.267
98.2333
90.0667
77.5667
70.1333
62.0333
56.2
46.3333
44.5
33.1
31.0333
23.3
19.2333
13.3333
9850.9
9752.87
9656.7
9560.63
9464.67
9369.77
9279.03
9185.37
9097.07
8955.53
8914.07
8788.4
8702.23
8596.6
8564.33
8423.27
8397.77
8039.6
7973
7925.23
7766.9
7558.93
7228.9
6425.97
6350.43
6129.13
5769.97
5954.57
5086.87
5132.13
4795.73
4395.97
3955.6
4100.4
3579.53
3344.5
3296.97
3042.9
2795.57
2775.6
2560.43
2364.93
2224.3
2108.23
1960.17
1793.2
1702.13
1598
1503.23
1377.13
1286.97
1218.83
1116.57
1005.73
964.367
894.667
801.867
802.767
719.3
657.767
603.2
579.267
520.8
489.667
454.9
433.767
390.2
371.467
348.1
321.5
287.067
271.533
243.3
229.9
200.7
194.167
175.4
162.367
145.4
136.2
122.367
110.067
102.333
91.2333
81.1333
70.3
64.1667
54.7333
47.2
41.9
36.4667
28.8667
23.2333
19.1
13.9333
9851
9753.7
9656.5
9560.57
9464.43
9369.57
9277.5
9187.87
9094.83
9004.37
8879.3
8827.13
8698.2
8607.2
8495.77
8437.77
8357.37
8071.97
8029.27
7898.63
7714.37
7407.47
7113.53
6907.63
6889.87
6360.37
5983.3
5708.1
5160
5203.13
4656.53
4540.4
4171.67
3971.7
3732.77
3495.2
3277.33
3096.27
2896.93
2669.17
2542.93
2416.97
2216.9
2108.1
1991.53
1863.37
1704.77
1658.33
1509.83
1381.83
1274.53
1198.13
1115.4
1019.23
954.7
917.967
838.7
783.3
728.467
655.6
634.067
570.133
535.533
478.233
461.8
430.533
400.567
357
345.8
308.867
291
269.233
240.967
226.733
215.5
197.2
178.767
159.9
150.633
139.067
128.1
114.333
99.8667
90.6
83.8
73.8333
64.8333
55.1667
47.9
39.9333
37.3667
30.1
23.2333
18.5333
14.4667
9851.27
9753.2
9656.23
9559.2
9464.33
9370.67
9279.37
9188.3
9071.43
9004.93
8873.8
8747.77
8740.2
8516.8
8429.73
8453.7
8159.8
8169.3
7978.7
7965.77
7772.33
7554.43
7063.4
6982.2
6710.77
6622.47
6408.53
5565.53
5685.73
5004.17
4908.47
4546.17
4554.67
4230
3659.37
3477.33
3286.1
3129.93
2962
2838.8
2628.6
2394.8
2284.07
2040.57
1987.93
1822.47
1749.27
1597.57
1453.7
1438.83
1299.77
1213.2
1133
1063.87
1017.97
893.933
837.033
799.367
722.267
691.967
628.267
594.067
535.567
508.367
473.3
427.8
410.1
380.067
344.433
327.8
290.4
258.733
251.2
241.067
212.8
197.767
179.767
166.467
150
139.333
131.1
112.967
101.367
90.5333
83.5
75.3333
65.8333
58.4333
50.6333
42.2333
37.8667
30.7667
25.9667
19.3333
14.4333
9850.7
9753.4
9655.7
9558.93
9465.2
9371.27
9278.5
9185.6
9094.5
9005.67
8860.07
8827.93
8742.33
8660.27
8446.43
8441.67
8247.5
8082.07
7872.83
7874.17
7549.6
7556.5
6986.57
6528.93
6851.97
6523.13
5988
5878.8
5538.13
5258.37
4752.2
4603.57
4609.13
3846.67
3721.1
3683.7
3317.63
3156.67
2989.93
2764
2542.03
2439.8
2274.43
2066.4
1998.57
1829.4
1748.5
1680.27
1517.87
1379.07
1330.03
1215.73
1152.57
1087.5
973.133
939.267
837.733
801.633
739.233
684.4
665.4
607.533
554.5
496.4
463.133
431.3
407.333
356.6
344.5
320.633
306.6
268.8
253.267
236.333
205.633
205.6
185.5
166.2
155.033
138.833
128.633
111.9
105.9
92.9
81.4667
73.4667
63.9
57.5667
47.2333
40.1333
34.8667
30.5667
26.4667
20.4667
15.5
9851.07
9752.97
9656.1
9559.3
9464.9
9371.9
9276.07
9184.83
9094.53
9004.13
8886.77
8828.6
8658.97
8653.87
8569.93
8436.9
8298.3
8204.33
7959.07
8074.37
7864.93
7319.57
6921.87
7220.4
6654.3
6525.57
6398.07
5741.87
5520.17
5390.13
4935.1
4680.57
4213.97
3987.67
3859.4
3670.13
3318
3054.7
2958.97
2720.13
2581.53
2462.07
2284.5
2100.2
1964.2
1854.83
1727.77
1621.07
1553.47
1426.53
1280.47
1245.33
1167.4
1084.3
997.9
925.467
847.033
795.133
743.867
687.133
650.967
596.533
558.4
511.233
480.9
437.767
420.033
368.533
352.3
320.4
288.667
277.333
257.967
230.7
215.267
201.533
187.8
166.267
155.2
142.9
131.233
120.533
104.633
92.3667
84.5667
69.8333
66.7667
57.9333
49.6667
42.6667
36.5333
31.4333
26.4
20.2333
14.7667
9851.63
9752.9
9655.8
9560.47
9464.97
9370.87
9279.97
9186.23
9095
9004.63
8883.83
8828.43
8660.63
8618.1
8527.97
8344.67
8285.27
8144.9
8006.57
7811.07
7403.3
7547.4
6865.03
6864.4
6967.43
6808.77
6237.73
5877.53
5619.53
5411.07
4957.83
4461.13
4158.67
4051.07
3917.13
3605.8
3385.77
3202.47
3165.37
2874.6
2632.57
2490.07
2389.1
2196.57
1998.53
1861.8
1774.13
1655.37
1582.93
1430.17
1384.37
1203.9
1157.8
1115.9
999.3
917.2
850.6
796.633
772.667
689.3
638.367
617.933
543.333
519.067
503.5
449.867
423.167
354.3
357.767
330.267
308.167
267.3
258.633
228.867
212.333
197.167
180.633
170.533
152.6
142.767
129.767
116.933
102.8
95.2
80.5333
77.4
68.0333
58.6667
51.5
44.4667
37.5333
30.0333
26.0333
19.9333
15.8667
9851.17
9754
9656.17
9560.33
9464.6
9371.3
9279.2
9186.23
9047.57
9003.33
8914.13
8798.93
8703.33
8569.67
8534.5
8200.57
8247.6
8057.23
8128.33
7837.23
7689.1
7140.5
7628.8
6795.47
7194.33
6544.57
6098.3
6063.5
5273.63
5205.83
4722.63
4545.3
4707.7
4359.63
3928.83
3632.53
3414.17
3272.33
3031.47
2825.87
2715.17
2555.8
2349.63
2192.17
1983.53
1934.7
1774.4
1687.2
1606.93
1493.37
1417.67
1263.17
1154.53
1085.63
1012.67
952.667
907.233
837
759.433
700.767
671.333
605.1
565.1
546
481.8
456.8
416.9
383.433
366.033
330.367
313.033
287.733
258.733
240.7
222
205.8
179.9
170.267
156.267
142.1
122.7
113.967
105.5
97.3
82.5667
74.7
65.0333
61.0667
48.5333
43.8667
38.2
30.8667
23.7333
20.2
14.5
9851.1
9752.43
9657.7
9560.93
9466.23
9371.2
9278
9186.13
9096.47
9005.93
8917.03
8790.33
8660
8608.87
8523.83
8398.27
8247
8105
8015.5
7641.4
7699.33
7525.1
7133
7470.37
7085.93
6490.03
6406.73
5566.8
5652.8
5134.73
5255.7
4478.8
4434.8
4098.4
3928.17
3577
3461.3
3331.83
3126.6
2854.47
2612.97
2500.3
2302.47
2176.8
2138.2
1969.8
1778.93
1677.2
1565.13
1461.2
1346.23
1308.43
1174.2
1096.43
1058.37
935
899
819.3
766.233
707.367
650.967
615.6
565.667
527.433
493.967
438.367
422.667
383.933
349.367
338.333
307.833
282.433
260.467
249.233
224.1
202.467
184.867
176.367
158.367
143.867
129.267
114.933
103.7
95.2333
90.7
73.6
68.1
58.5667
49.6
44.3
39.5
31.9333
25.9667
20.4
16.1333
9850.97
9753.3
9656.5
9559.67
9464.37
9371.8
9278.67
9184.6
9062.23
9004
8875.77
8759.27
8703.2
8653.27
8455.37
8428.33
8299.67
8043.97
7956.9
7751.73
7534.9
7511.27
7273.87
7078
6536.03
6507.07
6196.77
5998.33
5390.93
5310.97
5074.83
4631.57
4425.73
4194.43
3939.73
3471.8
3449.53
3180.87
3080.07
2842.13
2785.73
2500.63
2377.6
2239.9
2097.03
1930.97
1850.13
1724.97
1556.97
1429.63
1396.77
1287.2
1217.77
1105.67
1013.37
943.8
878.933
845.3
805.3
692.5
670.633
619.933
574.8
508.933
488.067
463.967
424.3
378.567
359.2
334.367
304.1
282.967
258
237.233
231.667
204.133
186.4
171.533
151.4
139.833
126.933
119.933
102.833
99.1
86.5
71.8
67.0667
56.8667
52.5
44.8
35.8
32.3
25.6333
21.2667
16.2667
9851.3
9752.93
9656.37
9560.5
9464.27
9370.57
9279.67
9185.87
9095.9
9005.83
8850.77
8823.1
8741.53
8650.43
8554.77
8389.2
8102.97
8042.13
8122.83
7752.4
7807.4
7780.67
7731.97
7150.13
6675.03
6765.7
6253.53
6016.8
5893.4
5549.6
5166.33
4958.87
4440.53
4334.07
3923.87
3675.1
3408.3
3188.63
3122.97
2919
2709.63
2505.2
2337.73
2260
2087.37
1948.73
1827.97
1722.47
1630.57
1528.23
1387.57
1297.43
1191.7
1091.23
1068.53
973.1
872.533
830.267
771.267
727.367
658.933
615
563.267
551.533
494.867
447.1
422.5
388.333
353.767
338.967
305.733
287.5
265.033
234.233
222.767
204.633
188.433
171.867
159.567
138.967
130.4
117.233
103.833
98.1667
87.5667
72.8333
67.9333
58.7667
53.1
42.5667
40.2667
32.9
25.7333
20.2667
16.4
9851.13
9752.53
9655.6
9559.37
9465.83
9369.97
9279.47
9185.4
9094.17
9004.27
8887.83
8827.83
8741.17
8613.47
8523.53
8390.8
8399.77
8191.67
8169.17
7929.37
7783.57
7607.87
7421.33
7262.37
6838.63
6504
5966.73
5813.8
5465.2
5255.93
4779.23
4983.03
4540.57
4099.43
4134.5
3811.87
3381.67
3414.57
3086.77
2900.67
2734.1
2497.83
2406.9
2278.83
2122.1
1951.37
1869.73
1745.97
1596.6
1457.53
1390.23
1312.63
1223.13
1099.53
1066.03
977.133
921.4
849.6
765.867
736.967
665.6
615.533
571.167
535.433
479.5
458.267
430.3
407.5
365
345.1
321.067
293.833
268.333
238.367
226.967
202.933
185.1
166
160.5
147.2
129.567
118.4
106.867
98.9
85.0667
73.1333
67.8
61.3
53.7333
45.0667
39.7
33.3
24.7333
20.2333
15.4333
9851.13
9753.03
9656.23
9559.4
9465.9
9371.1
9278.13
9185.4
9093.77
9004.9
8914.8
8790.1
8740.77
8603.37
8570.57
8343.9
8219.97
8158.7
8058.2
7719.97
7812.53
7595.73
7402.97
6966.67
6825.07
6862.33
5914.47
5912.83
5595.17
5462.77
4832.17
4890.5
4534.17
4076.53
4040.3
3682.83
3441.97
3232.63
3082.13
2916.83
2720.13
2646.97
2393.77
2262.63
2123
1988.93
1815.37
1703.43
1619
1433.13
1374.5
1301.73
1224.4
1152.13
1043.03
975.867
938.2
840.267
768.033
711.533
685.8
616.967
592.933
542.033
487.767
456.033
426.433
409.467
366.9
347.633
328.867
291.733
263
249.8
212.9
209.8
184
176.8
158.033
142.833
131.833
121.2
108.767
96.6
87.7667
78.1667
68.5333
61.4
49.3667
44
37.7
31.5333
26.0333
21.9333
15.4667
9851.43
9753.1
9655.8
9561.43
9465.87
9371.27
9279.5
9185.53
9096.5
9006.33
8917.5
8809.5
8698.7
8569.47
8572.27
8379.37
8172.37
8038.2
8167.53
7857.1
7790.87
7584.93
7544.33
7311.7
7042.2
6595.53
6527.2
6026.67
5533.3
5300.1
4946.33
4817
4762.83
4342.4
3879.37
3975.6
3489.43
3411.3
3207.27
2914.97
2795.37
2527.67
2435.5
2282.73
2144.57
1980.33
1844
1737.17
1594.2
1511.4
1382.5
1316.9
1243.57
1129.8
1042.23
976.367
928.567
839.933
790.033
718.6
685.7
622.1
599.3
548.233
499.1
452.533
431.533
400.567
367.733
344.367
312.067
296.9
270.6
252.533
222.367
210.767
186.767
173.933
160.467
148.267
133.5
117.633
107.967
96.1
87.5
74.3333
67.2
61.5667
52.6333
42.9333
38.6667
31.4667
26.9667
19.9333
14.3
9851.13
9753.2
9655.7
9559.67
9465.1
9371.2
9276.77
9186.3
9094
9006.6
8916.4
8827.57
8692.47
8655.17
8481.07
8326.17
8403.63
8219.53
7995.67
7744.47
7768.47
7487.73
7503.8
7504.17
6745.63
6587.93
6455.67
6269.5
5820.3
5520.5
5159.63
4725.57
4750.83
4214.1
4121.23
3803
3478.03
3453.77
3010.37
2917.33
2708.3
2531.03
2448.93
2307.7
2134.87
1926.8
1899.8
1755.43
1629.73
1494.57
1376.7
1319.4
1215.87
1149.83
1050.33
972.3
924.333
830.333
774.833
730.367
679.867
628.9
573.267
541.267
499.767
468.467
424.467
403.867
349.267
346.133
302.4
294.4
264.967
243.6
235.167
207.633
192.9
171.333
161.733
143.7
130.833
119.933
107.133
98.5333
90.2333
77.6
66.5
59.5333
54.0333
46.2667
38.8333
31.9667
25.9
20.4667
15.6667
9851.63
9753.27
9656.2
9560.4
9465.57
9370.93
9278.4
9186.53
9094.03
9006.7
8873.17
8827.5
8697.03
8621.2
8535.83
8434.4
8332.03
8198.73
8181.27
7987.9
7830.2
7392.2
7428.13
7086.87
6908.23
6412.43
6690.87
6403.33
5640.8
5791.93
5162.83
4795.87
4234.93
3987.47
3968.67
3993.9
3404.33
3339.7
3051.6
2955
2803.7
2606.23
2494.77
2285.17
2151.87
2040.3
1875.37
1736.8
1601.17
1523.3
1390.53
1320.27
1169.73
1127.8
1080.77
993.167
920.033
848.8
796.4
718.167
689.133
634.5
584.633
532.867
521.533
462.133
434.067
408.967
367.767
341.767
311.633
289.633
266.067
249.567
227.2
221.267
186.6
172.667
157.133
144.133
137.933
119.133
105.633
91.7667
88.3333
78.2667
69.3667
61.2667
53.6
42.9
37.7333
31.4333
25.7667
20.0333
15.2
9850.8
9753
9656.17
9560.17
9465.13
9370.6
9278.57
9185.77
9077.97
9005.57
8882.03
8827.27
8741.2
8611.93
8569.87
8449.53
8393.7
8007.77
8045.77
7973.43
7664.7
7554.87
7483.2
7131.03
6626.03
6257.8
6522.5
6178.9
5958.93
5265.5
4934.87
4903.23
4343.53
4162.1
3820.57
3855.63
3383.23
3537.7
3103.67
2955.97
2738.07
2609.67
2426.6
2314.87
2126.1
1974.87
1871.07
1762.13
1626.1
1547.93
1415.5
1307.73
1217.87
1136.1
1051.37
1003.6
904.367
836.633
802.333
731.767
678.267
626.033
576.8
550.267
514.133
465.467
427.333
403.567
361.067
343.267
321.6
294.433
264.7
253.533
230.033
211.4
195
169.567
147.933
147.467
134.833
120.133
113.567
94.6333
93.8667
76.2667
70.9
59.4667
50.5
43.7667
39.2
30.6667
24.1
20.0333
16.0667
9851.27
9753.43
9655.83
9560.07
9466.07
9370.87
9278.87
9185.27
9094.9
9005.2
8917
8783.87
8670.33
8658.13
8518.37
8436.37
8395.97
8259.5
8182.1
7839.9
7697.07
7230.73
7470.7
7192.5
6865.53
6782.4
6087.77
6204.97
6535.3
5318.17
5165.13
4750.57
4384.63
4329.4
3878.37
3621.3
3798.23
3221.3
3161.5
2996.4
2706.63
2626.57
2441.73
2302.3
2116.6
2019.63
1883.93
1713.13
1604.97
1549.77
1429.3
1351.23
1265.27
1165.5
1096.37
960.7
912.233
853.3
794.067
727.033
676.667
638.667
610.367
556.033
515.033
466.7
433.033
413.033
374.3
354.433
316.3
290.733
266
249.367
222.167
215.367
193.667
172.733
154.1
142.667
136.567
117.533
111.433
99.8
89.1
78.3667
66.2333
60.0667
51.9667
45.2
39.3333
32.3
26.6667
19.6333
14.2
9851.17
9752.37
9655.57
9560.23
9464.57
9371.4
9278.03
9186.17
9095.2
9007.13
8916.33
8727.8
8740.5
8654.53
8485.17
8447.2
8345.07
8190.57
8124.63
7792.9
7755.73
7804.87
7241.37
7512
7148.03
6990.83
6138.87
6037.47
5651.3
5855.33
4727.23
4735.47
4567.53
4189.2
3941.9
3739.53
3574.1
3321
3119.9
2967.3
2749.57
2648.97
2402.77
2335.93
2061.57
1958
1898.1
1809.03
1621.8
1546.6
1407.3
1301.47
1244.37
1194.87
1101.1
979.6
915.667
852.133
775.033
742.433
698.6
644.8
613.933
553.333
507.233
482.633
433.833
414.267
365.467
340.967
322
291.233
273.4
249.433
229.367
206.933
195.533
173.4
157.7
144.933
130.867
121.433
109.333
98.6
85.4667
79.4
70.2667
63.2
51.7667
46.5
39.8
32.9
25.9333
19.8333
17.0333
9850.63
9753.4
9656.03
9560.77
9464.57
9371.1
9277.8
9186.63
9097.17
9005.6
8867.17
8828.47
8712.73
8426.67
8522.67
8486.1
8311.07
8055.57
8058.07
7985.43
7627.33
7338.23
7383.17
7275.4
6724.03
6511.43
6729.23
5972.77
5912.87
5325.43
5047.63
5159.53
4342.1
4095.4
4082.47
3924.5
3539.6
3344
3261.53
2981.57
2713.67
2580.67
2466.2
2342.07
2185.07
2016.87
1881.63
1758.13
1682.93
1548.5
1432.67
1283.27
1232.8
1132.4
1091.63
1023.23
944.433
854.167
792.067
735
700.333
648.7
610.7
555.6
516.9
462.5
443.8
419.2
365.467
340.6
319.067
297.467
281.667
255.767
227.667
205.967
193.167
177.033
166.367
153.333
125.767
118.467
112.433
96.8
86.9
78.2
74.6
61.5
54.1333
47.4
40.9333
31.2667
27.6667
20.5667
17.3
9851.1
9753.1
9656.67
9560.17
9465.17
9370.4
9277.3
9184.37
9096.17
9005.6
8914.83
8830.63
8700.27
8631.63
8524.43
8405.63
8401.9
8190
8097.1
7863.83
7816.7
7479.43
7515
7350.73
7171.07
6521.27
6417.73
6149.63
5692.57
5665.63
4879.97
4587.8
4871.13
4371.43
4130.1
3792.53
3548.93
3252.8
3198.33
2985.13
2721.57
2577.6
2371.53
2279.13
2140.03
1965.47
1878.77
1752.77
1666.6
1532.93
1489.57
1349.4
1255.63
1175.93
1090.6
1028.5
917.4
887.233
802.267
742.167
698.833
623.233
583.8
550.3
490.967
481.3
428.567
407.333
371.667
344.4
329.5
301.2
274.767
250.533
224.5
212.633
194.733
174.6
157.867
144.9
134.9
121.533
108.033
98.5333
86.5333
79.0667
68.8667
60.3667
55.3
47.0333
37.6333
31.1667
24.7333
20.7333
15.3667
9851.23
9753.03
9656.4
9560.47
9466.17
9370.6
9277.57
9185.4
9097.17
9004.5
8916.53
8827.13
8707.7
8583.7
8479.43
8380.73
8359.7
8261.47
8050.03
7872.87
7837.4
7643.27
7460.8
7002.43
6910.27
6664.43
6390.07
6299.97
5778.2
5677
5212.33
4914.17
4937.3
4343.83
4245.3
3655.47
3519.03
3302.8
3174.3
3104.77
2725.7
2544.3
2457.57
2323.3
2166.4
2049.27
1893.5
1744.6
1663.8
1564.33
1396.4
1366.53
1262.6
1162.97
1083.53
997.467
942.967
859.567
829.2
748.133
676.8
634.033
587.933
576.6
515.833
477.6
439.333
401.9
380.267
346.933
311.6
294.7
283.733
245.967
232.767
205.7
197.2
183.933
161.967
151.333
138.133
119.8
109.933
106.2
90.1
82
72.2667
55.1333
56.5667
45.4
41.6333
32.7333
26.6667
21.6667
16.3667
9851.2
9753
9655.87
9560.33
9465.67
9355.17
9278.4
9186.27
9095.77
9005.4
8916.83
8790.3
8741.23
8618.67
8518.37
8485.7
8345.87
8045.9
7948.9
7983.87
7749.8
7455.77
7370.23
7333.2
6903.33
6513.8
6491.23
5894.7
6157.8
5394.97
5250.43
5137.57
4478.83
4521.13
4068.83
3866.53
3681.07
3298.93
3178.03
2977.2
2815.77
2634.03
2507.73
2419.8
2139.87
2007.13
1910.37
1824.03
1650.07
1543.3
1459.23
1328.13
1252.13
1121.67
1073.63
989.867
943.1
875.567
812.4
747.8
688.733
635.967
584.633
552.633
507.167
466.333
422.2
407.633
376.467
343.2
321.533
304.967
281.1
257.7
220.433
210.6
193.167
175
168.5
147.467
132.967
124.6
108.667
95.1667
90
81.4667
70.2333
62.6667
52.5333
46.7333
37.3333
36.5
25.9667
21.8667
16.4667
9851.03
9752.97
9656.3
9560.03
9465.33
9370.73
9279.33
9185.27
9093.47
9006.8
8918.83
8828.83
8742.93
8539.13
8536.67
8445.93
8401.03
8236.87
7997.17
7632.7
7841.2
7628.4
7582.63
7358.2
6901.43
6510.6
6141.57
6351.7
5871.47
5706.6
5062.57
4979.87
4449.77
4379.57
4046.43
3893.67
3645.2
3431.97
3096.9
3122.53
2845.2
2693.6
2456.63
2278.9
2177.9
2058.23
1902.23
1762.47
1592.7
1528.9
1435.97
1359.37
1241.97
1155.23
1113.73
1021.9
928.5
850.5
801.633
737.467
729.433
665.7
582.233
571.767
526.6
477.4
426.9
399.767
379.533
340.3
321.367
305.633
272.967
260.833
234.9
217.167
195.167
178.533
159.267
147.833
132.3
120.333
109.467
106.133
90.7333
81.0667
69.4667
60.7333
51.1333
49.3667
38.4
34.1333
26.9333
19.7333
15.7667
9850.9
9753.07
9655.63
9560.37
9465.37
9371
9277.47
9185.63
9094.8
9005
8915.03
8823.9
8741.2
8655.5
8515.43
8485.7
8399.03
8166.5
7892.07
7963.9
7727.43
7605.47
7522.67
7104.13
6734.9
6937.53
6776.23
6256.5
5961.2
5853.13
5339.93
4975.27
4996.97
4319.67
4214.63
3755.3
3563.7
3314.83
3118.27
3016.53
2847.3
2659.93
2475.57
2300.23
2142.57
2010.27
1971.67
1765.97
1682.1
1528.53
1435.83
1328.03
1307.6
1148.83
1070
1020.7
935.167
866.5
823.533
778.267
694.467
649.567
601.3
555
514.1
478.433
448.1
413.8
375.133
350.267
324.567
294.667
272.833
254.133
230.333
213.133
190.033
182.333
164.067
161.5
136.733
119.433
109.6
104.567
90.3667
78.1333
70
61.4667
54.2
44.4667
39
32.9
26.2333
21.8333
16.2333
9851
9753.37
9656.03
9559.7
9464.8
9371.17
9278.37
9186.27
9095.4
9006.3
8886.03
8826.6
8741.5
8589.83
8568.03
8377.4
8310.53
8111.4
8062.17
7803.57
7512.57
7664.43
7505.2
6980.23
6735.57
6535.43
6538.13
6139.4
5554.9
5449.73
5212.8
5059.1
4596.6
4297.13
4084.97
3823.3
3505.97
3462.73
3114.93
3076.93
2949.7
2610.1
2435.67
2295.5
2134.77
2049.37
1866.27
1878.13
1680.73
1504.8
1450.8
1321.8
1239
1130.8
1103.47
1029.4
922.133
914.167
793.733
768.567
691.533
658.733
603.533
554.7
531.133
487.6
442.733
408.4
373.567
344.767
328.9
304.333
269.167
248.6
233.033
207.367
195.267
181.733
156.067
158.367
138.3
118.167
108.8
102.467
89.2667
81.2667
71.1
62.8667
54.5
47.2667
37.6667
33.0667
28.6667
19.1
14.0333
9850.87
9752.63
9655.4
9560.8
9464.7
9371.93
9278.53
9185.87
9095.43
9005.37
8914
8825.97
8695.47
8654.47
8571.17
8424.27
8352.53
8321
8040.83
7816.23
7670.6
7873.57
7484.77
6870.63
7173.57
6888.7
6192.33
6212
5976.47
5722.67
5530.43
4721.6
4943.97
4307.23
4342.97
3974.83
3522.5
3301.7
3266.4
2943.17
2734.67
2670.27
2472.97
2309.13
2196.2
2070.87
1925.1
1792.9
1673.57
1531.53
1433.03
1343.4
1253.9
1135.83
1056.4
1017.13
936.167
852.067
825.9
767.2
700.4
653.233
589.4
558.467
537.467
487.667
436.8
410.133
395.3
340
321.333
303.6
283.833
263.4
237.467
220.033
201.633
177.433
175.367
150.567
133.6
123.5
106.4
96.1
91.3667
83.3
68.2667
61.3667
51.8333
46.6333
40.2
32.9667
25.5667
20.7
13.5667
9851.03
9753.17
9656.03
9561.23
9464.7
9371.83
9279.4
9185.87
9095.3
8968.93
8883.43
8829.67
8737.03
8655.7
8506.47
8442.67
8357.1
8181.27
8181
7988.93
7704.2
7877.63
7425.2
6985.53
7035.97
6629.7
6577.23
6112.8
5979.1
5770.5
5212.03
4708.3
4892.13
4490.83
4085.3
3752.2
3606.63
3427.27
3219.5
2908.83
2805.07
2664.97
2490.53
2310.27
2253.33
2086.43
1892.07
1792.17
1695.6
1495.9
1487.2
1303.17
1227.4
1171.9
1083.77
1020.67
945.467
890.3
817.967
725.733
702.9
653.433
603.1
561.367
524.333
477.667
449.3
409.4
370.133
337.3
326.233
300.933
274.467
245.767
233.367
210.333
203.4
178.6
169.333
153.133
128.6
121.8
109.867
105.633
89.5333
80.9
69.0667
63.1667
52.8
45.9667
39.3333
31.2333
25.2
21
14.8333
9851.23
9753.33
9656.07
9560.7
9464.73
9372.37
9277
9185.9
9094.6
9005.83
8916.07
8828.37
8690.87
8607.47
8570.07
8437.2
8233.8
8129.43
8110.87
7934.03
7865.13
7753.47
7621.33
6924.3
6755
6651.43
6345.87
6331.53
5944.4
5654.03
5198.7
4987.97
4769.7
4256.43
3863.17
3756.7
3448.3
3523.2
3083.83
3098.23
2770.63
2631.83
2394.67
2358.17
2156.27
2014.23
1919.57
1752.3
1705.33
1520.47
1473.1
1340.5
1274.03
1198.23
1100.13
1018.13
945.2
875.533
821.2
732.933
705.3
651.733
609.733
532.367
525.3
487.967
449.9
426.233
388.433
362.967
325.667
290.133
273.933
261.8
233.567
210.2
203.5
180.633
159.467
140.533
132.133
120.933
109.567
97.9
87.8333
81
70.7
64.7333
56.6667
47.4333
40.4
33.7
27.7
22.1667
15.1667
9850.97
9753.27
9656.17
9560.57
9466
9371.43
9278.1
9185.3
9097.93
9004.07
8917.33
8828.1
8741.43
8655.43
8421.87
8490.17
8295.67
8128.67
8006.5
7951.73
7871.7
7793.8
7460.97
6782.63
7124.87
6578.37
6691
6171.93
5988.63
5375.97
5300.27
4918.13
4633.27
4534.07
3869.6
3954.57
3696.6
3594.5
3154.7
2965.43
2845.93
2605.67
2559.17
2376.57
2263.43
2020.6
1931.4
1753.43
1717.7
1553.53
1466.1
1346
1303.43
1164.73
1130.57
986.3
937.233
869.367
806.967
748.167
692.867
634.033
617.333
545.233
520.233
492.533
443.033
418.933
385.233
363.2
312.6
300.533
272.867
242.967
229.033
219.867
192.033
185.267
158.633
148.4
131.7
124.233
111.7
103.6
88.9667
79.5333
72.1333
63.7667
52.7667
46.8333
39.2333
32.9667
28.6
20.5333
15.1
9850.93
9753.1
9656.03
9559.5
9465.13
9370.9
9277.3
9186
9096.8
9006.5
8913.67
8791.4
8741.93
8654.37
8568.67
8489.63
8288
8278.17
8052.17
7778.23
7711.83
7790.8
7504.27
7085.77
6664.6
6594.9
6518.5
6414.9
5665.03
5492.5
5465.97
4721.33
4934
4098.83
4572.8
3812.5
3494.8
3488.17
3307.97
3122.67
2840.73
2595.63
2429.6
2288.63
2242.23
2079.4
1923.03
1820.53
1629.23
1496.43
1458.93
1359.37
1313.8
1176.07
1126.9
984.667
959.367
883.7
828.6
788.533
691.833
681.933
602.8
563.733
510.7
478.567
429.3
400.567
393.1
346.333
325.9
295.1
286.9
257.833
234.067
208.967
201.533
183.8
169.667
153.467
136.233
124.033
118.167
104.967
91.1
82.1333
68.8333
59.3667
51.5
44.6333
40.1
31.1
26.4667
21.3333
15.8
9851.27
9752.97
9655.4
9560.53
9464.73
9371.67
9277.8
9188.3
9093.97
9006.7
8916.7
8826.97
8733.5
8655.5
8573.57
8438.77
8214.37
8278.1
8235.63
7984.13
7954.07
7510.4
7488.73
7454.13
7060.1
6817.07
6379.43
6018.07
6101.07
5240.73
5282.23
4838.43
4705.63
4394.57
4102.43
3927.1
3594.7
3344.97
3189.97
2962.67
2866.03
2696.67
2557.73
2375.87
2180.77
2024.93
1980.87
1790.1
1695.43
1540.5
1424.9
1338.07
1237.23
1214.13
1075.83
1011.83
939.267
873.967
846.867
761.433
704.6
658.467
617.367
551.7
510.633
467.867
446.1
409.467
377.233
352.8
329
292.6
281.233
247.2
233.267
221.267
198.533
180.4
161.967
153.467
138.333
116.7
114
97.8667
87.8
74.3333
72.7333
61.0333
54.5333
45.7667
39.9333
33.1667
27.5333
20.8333
16.5667
9851.2
9753.3
9656.47
9560.63
9465.3
9371.5
9277.63
9186.03
9096.77
9003.63
8881
8790.6
8744.33
8607.83
8568.87
8486.6
8317.23
8222.47
8046.43
8039.3
8080.6
7479.5
7234.13
7272.27
7076.23
6959.97
6552.2
5921.1
5624.6
5442
5722.07
5074.83
4494.6
4451.83
4073.73
3883.67
3481.23
3415.23
3210.33
3085.7
2803.33
2687
2504.23
2438.9
2186.13
2054.43
1934.5
1754.3
1703.17
1575.43
1451.97
1335.43
1290.5
1185.03
1085.77
1054
947.367
908.633
817.4
769.933
707.367
687.5
619.667
560.9
530.167
468.4
451.367
418.267
373.1
346.633
331.9
289.4
286.033
260.7
236.2
212.2
199.667
194.167
168.167
152.9
133.167
123.933
106.433
101.033
91.5667
77.0333
67.5333
60.8
51.9667
46.4
40.4667
33.7667
26.2333
20.4667
16.8333
9851.1
9753
9656.57
9561.1
9464.23
9335.47
9277.6
9188.4
9096.33
9003.63
8915.23
8826.47
8742.07
8616.13
8530.17
8441.77
8351.57
8185.67
8189.03
8092.4
7769.03
7649.57
7499.17
7300.4
6937.03
6282.8
6228.97
6293.2
6178.33
5679.23
5400.7
4781.1
4850.83
4071.9
4180.3
3724.63
3809.23
3466.73
3331.67
3060.37
2853.1
2629.3
2478.03
2372.37
2158.77
2061.53
1998.77
1818.7
1701.87
1504.77
1466.87
1340.73
1281.1
1193.97
1080.77
1022.8
943.633
878.967
825.5
739.933
722.8
648.4
598.5
558.533
521.033
492.667
450.333
412.767
377.3
350.267
321.2
301.533
273.267
254.1
237.067
218.067
198.367
179.1
159.5
151.567
138.2
124.667
112.1
96.7667
88.9667
84.5333
70.8667
60.9
54.6667
48
41.8667
33.6
27.4333
21.5667
16.6333
9850.9
9753.3
9655.33
9559
9464.27
9372.23
9278.97
9185.17
9094.5
9005.77
8885.77
8827.1
8695.57
8656.7
8532.33
8431.63
8217.5
8247.33
8140.1
7895.73
7884.47
7393.27
7446.43
7360.77
7096.63
6827.97
6582.27
6072.23
6426.9
6008.9
5191.63
5061.23
4749.77
4292.9
4501.63
3797.3
3675.1
3395.63
3124.77
3043.3
2775.63
2626.6
2506.77
2336.1
2178.43
2064.33
1868.17
1774.3
1670.63
1527.47
1484.43
1362.4
1224.43
1192.03
1105.27
1000.6
927.933
832.533
813.933
735.933
706.533
657.267
602.2
553.2
529.6
476.867
438.767
400.667
377
358.567
312.767
295.767
275.667
257.667
228.767
219.967
200.7
180.3
171.1
144.8
135.2
126
112.933
104.2
92.0333
74.9667
74.2
61.2667
53.4
46.6667
38.5667
33.0333
26.3667
21.8333
15.4
9850.93
9752.6
9654.7
9561
9465.27
9371.77
9278.33
9186.9
9093.63
9004.07
8915.77
8828.57
8741.4
8654.4
8464.4
8454.67
8348.2
8192.87
8024.67
7713.93
7815.37
7700.13
7209.4
7037
6791.7
6949.83
6643.13
6093.63
5798.97
5110.73
4895.47
4827.93
4393.5
4417.3
4121.17
3742.2
3563.47
3428.1
3134.57
3124.07
2802.77
2603.57
2506.47
2359.8
2151.03
2083.27
1940.17
1780.87
1688.13
1578.6
1485.57
1387.17
1256.27
1173.17
1109.87
1059.77
932.433
867.7
823.533
752.4
698.033
640
612
553.467
508.533
486.2
458.867
417.5
393.167
357.733
330.867
306.9
274.833
263.5
235.767
211.667
192.633
180.433
166.333
149.933
137.9
126.733
114.133
92.4333
89.2
76.2333
69.9667
62.3667
55.7667
47.2333
38.9667
33.3333
26.2333
20.7
16.8667
9850.7
9752.97
9656.33
9560.13
9464.67
9371.93
9277.2
9185.17
9095.73
9004.47
8917.77
8827.13
8744.9
8613.2
8524.57
8391.83
8302.87
8206.37
8127.8
7933.63
7717.87
7346.1
7622.43
7053.23
7008.6
6450.6
6347.8
6153.03
5855.4
5725.33
5244.87
5018.33
4772.07
4516.67
3979.7
3871.53
3663.17
3321.13
3267.3
2941.67
2770.43
2651.63
2477.97
2305.3
2198.87
2076.3
1926.97
1772.87
1680.9
1571.97
1464.03
1322.7
1234.03
1180.37
1131.13
1025
952.967
866.8
835.667
771.433
701.167
650.033
626.267
559.267
533.967
504.5
442.367
419.767
374.667
361.1
327.8
295.667
277.267
250.1
241.967
220.4
191.933
179.367
169.233
145.633
136.933
125.3
113.2
101.267
91.2667
81.3
71.1333
60
56.1
45.8667
38.9667
36.2667
27.4333
19.2667
15.5667
9850.83
9752.57
9656.6
9559.93
9465.03
9371.97
9278.83
9185.73
9094.27
9006.5
8915.4
8826.17
8741.43
8607.33
8514.87
8336.8
8139.93
8167.3
8189.07
8157.67
7768.07
7459.47
7330.33
7682.47
6630.73
6606.1
6521.07
6225.6
5891.9
5625.07
5228.07
5155.83
4518.33
4556.23
4046.1
3887.07
3535.3
3322.33
3234.73
3053.7
2909.2
2587.83
2497.9
2300.7
2151.53
2038.77
1987.7
1768.47
1634.37
1572.77
1466.47
1382.37
1274.3
1189.7
1094.43
1065.37
963.6
896.6
813.567
792.567
710.667
642.4
622.233
580.533
517.633
481.067
460.767
411.633
392.5
352.767
338.267
296.4
278.7
254.967
236.367
217.7
197.367
175.033
167.667
149.5
137.1
123.533
107.033
98.8667
92.0667
82.0667
68.8333
62.9
54.7667
44.6667
41
34.0333
27.0333
20.9
16.7
9850.93
9752.73
9656.1
9559.5
9465.43
9369.73
9279.2
9187.93
9096.23
9004.97
8913.87
8828.33
8617.23
8568.57
8534.83
8487.97
8237.77
8316.5
8053.17
7812.1
7630.2
7512.6
7523.23
7262.8
7088.17
7066.6
6932.17
6708.13
6001.9
5713.93
5771.77
4987.77
5035.37
4311.33
4102.43
4093.9
3684.07
3483.17
3076.6
2966.57
2814.4
2681.3
2433.4
2371.77
2192.5
2049.93
1899.77
1753.5
1732.47
1528.27
1485.67
1323.73
1212.73
1191.8
1091.83
1028.2
961.133
859.867
820.067
759.5
697.167
676.633
609.467
582
525.167
482.7
431.633
420.933
379.5
346.7
325.633
287.7
278.667
254.533
238.467
215.9
195.867
171.567
168.1
155.2
133.6
124.833
116.6
101.667
95.1333
80.4333
71.6
59.7333
54.2
47
41.9333
33
27.1
22.9667
15.7
9851.03
9753.03
9656.47
9561.17
9464.57
9371.33
9278.9
9184.87
9095.37
9006
8919.27
8827.23
8742.87
8656.03
8570.07
8385.2
8361.43
8188.4
8087.3
7962.67
8014.3
7451.53
7487.03
7262.07
6998.53
6824.63
5907.87
5979.07
5746.07
5593.5
5144.47
4965.23
4922.67
4515.3
4055.17
3731.8
3467.63
3373.07
3234.13
3178.93
2888.73
2745.8
2501.03
2386.43
2252.27
2011.87
1922.5
1745.73
1666
1547.57
1434.77
1348.63
1297.03
1176.1
1101.97
1041.03
962.433
903.8
817.133
770.7
706.133
643.833
604.4
580
520.9
500.4
457.467
410.867
371.5
353.167
327.233
293.8
269.067
258.833
240.767
226.133
192.867
175.033
162.467
146.3
136.3
124.367
111.4
102.2
90.8333
79.1
70.2667
59.8333
52.5
45.7333
40.9333
31.4333
28.9333
21.5333
16.3333
9850.83
9753.17
9655.63
9560.4
9464.4
9371.9
9277.5
9186.6
9093.53
9003.8
8914.7
8828.73
8702.1
8617.9
8568.47
8356.13
8403.57
8143.17
8073.8
7966.6
7665.2
7805.9
7429.97
7424.37
7084.43
6681.97
6441.27
6292.77
5701.17
5683.07
5249.3
4731.4
4727.77
4452.93
4139.53
3950.53
3515.3
3457.33
3346.37
3079.23
2842.8
2703.03
2475.73
2388.6
2199.7
2067.5
1962.07
1826.53
1706.23
1547.4
1481.83
1376.2
1267.6
1218
1128.13
1040.8
945.633
887.533
804.933
737.267
683.2
675.033
597.933
558.467
511.467
489.533
444.467
403.1
382.933
352.433
327.367
300.567
283.333
254.133
229.3
212.233
200.433
182.167
166.533
150.033
131.533
117.7
115.867
100.833
89.9
84.1667
71.2667
62.9333
52.6333
48.2333
38.5
33.3
26.1333
22.8
14.9667
9851.2
9753.53
9656.73
9560.5
9464.83
9372.4
9276.83
9187.57
9092.97
9005.83
8871.27
8826.2
8742.53
8611.9
8525.7
8429.6
8355.63
8149.47
8133.3
8032.8
7706.13
7612.37
7566.87
7188.5
7101.6
6969.1
6576.1
6532.73
6388.3
5483.33
5160.67
5133.5
4531
4303.47
4015.27
4079.63
3636.7
3488.47
3311.07
2942.87
2842.47
2644.77
2490.8
2399.47
2194.87
2054.77
1883.87
1747.47
1688.6
1552.83
1437.07
1374.6
1247.47
1222.47
1156.2
1012.97
922.433
880.4
836.333
782.133
718.7
631.067
629.4
565
516.567
478.3
445.667
431.333
376.333
347.933
334.367
301.767
277.9
257.133
231.933
211.2
188.933
172.9
169.1
146.567
128.433
126.2
108.233
102.1
89.1667
81.5667
74.2333
60.4
57.0333
48.0667
38.7333
30.8333
25.4
21.7667
16.6667
9851.13
9752.73
9655.63
9560.67
9464.97
9371.4
9277.8
9187.07
9094.37
9004.13
8916.37
8829.07
8738.1
8576.77
8571.63
8483.13
8405.07
8158.97
7956.47
7936.17
7599.83
7753.03
7499.83
7011.87
7258.27
6745.67
6433.63
6188.17
5752.3
5633.93
5184.23
5208.63
4495.47
4313.27
4156.97
4101.4
3782.77
3532.83
3197.83
2983.63
2838.53
2678.77
2475.67
2308.43
2182.07
2026.07
1976.17
1845
1702.4
1568.3
1416.4
1359.2
1257.7
1157.27
1106.5
1034.9
961.967
884.633
811.533
784.867
716.8
636.7
610.667
559.4
528.4
498.2
444.567
412.033
379.7
356.067
320.4
303.267
270.333
262.367
234.2
212.1
192.433
189.2
168.333
151
142.767
129.3
112.167
100.133
89.5
81.6
73.0333
63
57.9333
47.2667
40.3667
32.8667
27.0333
22.2667
15.5
9851.33
9753.33
9655.83
9560.17
9465.8
9370.97
9278.77
9185.9
9093.53
9005.43
8915.03
8828.97
8742.33
8657.33
8524.37
8487.53
8371.9
8086.27
7949.47
8010.43
7818.87
7634
7351.83
7244.2
7105.23
6650.03
6507.47
6136.47
6324.57
5385.8
5004.8
4837.87
4759.8
4280.73
4244.23
3846.53
3571.57
3515.83
3148.77
3209.77
2808.4
2659.33
2577.4
2382.2
2197.3
2124.3
1865.97
1783.2
1648.1
1566.4
1474.73
1329.73
1308.63
1164.33
1113.3
1020.8
926.033
910.967
812.533
756.167
713.533
660.2
599.333
575.1
504.267
476
441.067
403
391.333
359.133
319.167
300.3
275.733
256.567
233.067
214.067
201.433
179.967
161.867
152.167
140.367
123.467
112.833
101.1
86.6667
73.7333
70.1667
60.0667
54.0667
47.6
39.5
31.7333
27.8667
20.8333
15.7
9850.9
9752.63
9655.4
9559.03
9464.03
9372.87
9279.23
9186.3
9094.93
9007.37
8917.67
8830.57
8740.5
8653.33
8568.7
8445.17
8357.2
8127.97
8099.57
7838.67
7734.17
7464.57
7280
7295.67
6822.23
6567.8
6397.87
6160.97
5994.27
5133.33
5581
5007.07
4392.6
4648.23
4054.3
3779.8
3747.83
3359.43
3176
3095.47
2825
2603.9
2508.73
2384.93
2190.37
2080.07
1985.9
1811.03
1698.9
1611.13
1472.33
1371.97
1282.23
1162.9
1108.57
1025.07
942.9
876.2
842.767
739.433
687.1
664.1
593.233
548.767
522.067
497.633
437.6
422.667
399.4
354.167
331.667
311.533
281.5
252.5
234.867
212.067
197.1
181.9
165.5
154.633
134.267
124.7
106.433
100.133
90.3
78.4
68.8667
65.2333
54.4
47.3333
40.4333
34.1333
27.2
20.2667
16.4667
9851.2
9753.03
9655.53
9559.97
9464.2
9370.2
9278.2
9187.03
9095.4
9004.03
8916.83
8827.53
8740.03
8630.27
8467.37
8434.23
8309.6
8318.6
7926.63
7984.87
7812.7
7732.3
7523.7
7363.53
7150.37
6864.3
6127.97
6123
6011.3
5013.7
5308.07
4978.03
4958.6
4341.53
4107.23
3648.2
3538.53
3375.17
3371.97
3024
2844.93
2688.13
2519.27
2377.67
2186.27
1995.53
1887.13
1802.53
1682.07
1533.27
1499.73
1369.27
1278.33
1192.33
1107.13
1021.3
978.033
875.233
815.9
769.133
703.767
678
596.467
567.567
527.5
477.733
437.233
418.7
389.9
349.333
318.067
302.367
265.133
244.867
236.833
221
198.233
184.767
164.467
159.233
136.833
122.9
113.233
104.367
95.3333
79.7
71.2667
62.0333
57.1667
43.8
40.6
34.0333
27.1
21.5667
14.6333
9851.4
9753
9656.43
9559.63
9465.5
9371.7
9278.73
9184.53
9094.97
9006.97
8915.9
8824.93
8740.47
8652.93
8536.7
8488.27
8303.67
8261.97
8009.03
7971.47
7888.8
7519
7585.47
6994.33
6850.63
6968.9
6281
6015.83
5805.7
6067.07
5236.03
4786.37
4658
4194.93
4049.1
4041.87
3622.5
3429
3211.67
3151.77
2747.8
2662.9
2485.03
2358.83
2298.93
2052.73
1951.27
1809.23
1700
1560.93
1443.03
1372.67
1316.33
1181.2
1114.57
1022.57
916.933
899.7
828.2
762.8
734.333
670.533
600.467
569.2
527.067
483.667
436.1
411.033
378.467
352.3
331.9
297.9
274.867
264.933
239.2
216.333
201.2
181.2
162.933
149.4
131.8
128.2
116.8
101.967
85.6
82.8
70.2667
60.1667
52.9333
45.2667
40.2333
32.7667
26.3333
20.2333
16.6
9851.1
9753.47
9656.23
9559.93
9463.8
9371
9277.4
9185.83
9097.57
9006.07
8917.33
8787.83
8684.93
8654.93
8521.1
8485.03
8311.3
8195.03
7975.43
7917.33
8007.77
7689.77
7303.33
7066.2
7033.5
6864.2
6624.13
5919.27
5873.33
5774.2
5215.07
5167.17
4863.5
4698.93
4180.27
3781.83
3593.07
3586.8
3140.03
3092.27
2841.6
2611.7
2577.07
2360.53
2201.77
2044.7
1876.13
1848.53
1730.83
1615.33
1480.2
1374.47
1268.07
1182.73
1126.87
1010.27
975.433
883.933
840.5
763.133
731.3
663.267
614.333
557.067
530.3
469.033
445.2
408.667
378.667
354.467
336.867
294.4
273.633
254.4
232.867
222.333
201.733
187.267
169.9
153.1
136.167
130.2
109.7
97.5667
90
84.5667
69.6667
61.8333
54.7667
45.8667
39
33.8
26.2667
20.8667
15.6667
9850.97
9753.37
9657.1
9558.9
9464.73
9371.37
9276.53
9186.23
9094.1
8980.8
8917.07
8827.73
8740.97
8615.2
8569.63
8369.5
8248.33
8321.53
8175.57
7891.5
7803.93
7531.97
7656.5
7405.47
7189.53
6799.03
6734.23
6340.93
6190.73
5616.37
5233.63
4844.07
5191.87
4478.77
4183.47
3778.6
3641.1
3300.03
3262.87
3053.57
2850.57
2653
2462.8
2385.1
2207.13
2061.3
1870.23
1862.37
1654.3
1505.23
1469.8
1322.83
1283.1
1145.47
1096.4
1054.87
971.5
894.7
826.867
754.2
689.1
645.567
616.633
559.167
532.967
484.633
447.8
423.6
379.033
349.833
325.033
299.4
276.333
259.033
247.233
220
200.767
184
159.533
150.933
136.167
124.267
113.033
101.367
87.9
82.5
70.5333
61.3333
51.0667
48
39.1333
32.1667
24.6333
20.6667
15.6333
9851.4
9753.07
9656.37
9559.07
9465.77
9371.6
9277.23
9186.53
9095.6
8979.33
8917.67
8826.13
8738.7
8618.57
8537.9
8441.77
8310.1
8257.7
8075.43
7920.9
7833.3
7541.93
7463.83
7229.73
6813.27
6503.97
6436.13
6203.8
5692.53
5676.67
5200.8
4696
4522.23
4734.3
4017.97
3829.1
3523.23
3363.37
3234.9
3011.13
2818.6
2657.73
2521.6
2414.67
2212.83
2108.43
1941.43
1843.23
1665.27
1558.3
1471.5
1361.4
1253.27
1215
1118.63
1033.83
944.833
871.4
851.7
756.033
701.6
660.6
605.467
566.533
533.167
468.567
425.167
412.433
364.967
345.6
332.133
298.067
278.067
255.667
229.133
213.3
199.4
186.8
158.2
151.933
133.367
124.1
109.767
101.8
91.4333
77.3667
73.5
62.7
55.2667
44.8333
39.3333
31.6667
26.9
20.7
15.1667
9851.2
9753.5
9656.87
9560.4
9464.97
9372.53
9279.17
9185.37
9094.33
9007.53
8894.57
8828.37
8742.07
8656.5
8530.43
8482.43
8244.63
8168.13
8191.9
8037.53
7832.7
7684.6
7514.27
7344.63
6956.27
7094.23
6765.8
6043.5
5735.67
5679.43
5478.57
5025.33
4564.17
4085.77
4011.43
3940.97
3574.83
3352.87
3195.17
2996.33
2836.13
2800.77
2503.07
2314.63
2123.97
2088.8
1866.87
1803.73
1650.3
1590.27
1437.63
1294.87
1272.03
1145.87
1081.1
1029.3
936.367
861.567
808.5
766.6
730.1
674.8
603.567
544.567
506
486.267
433.833
412.667
383.533
349.9
325.8
306.733
271.733
257.2
228.433
227.367
194.2
187.367
163.7
146.667
139.867
122.6
115.367
98.7333
92.8333
82.5
68.7667
62.9
55.9667
48.0667
38.6667
32.2333
26.9
21.2333
15.3
9851.03
9753.17
9655.7
9560
9464.07
9372.13
9278.07
9186.03
9093.53
9005
8875.03
8830.97
8691
8626.5
8564.7
8484.5
8366
8246.7
8031.37
7873.93
7805.3
7561.2
7250.37
7294.73
7137.03
6766.43
6553.03
6076.03
5911.6
5575.77
5641.07
4697.83
4684.43
4183.5
4277.8
4046.5
3716.7
3366.8
3184.9
3075.77
2893.9
2641.4
2549.2
2353.53
2220.87
2027.3
1950.2
1754.57
1691.23
1566.03
1486.83
1393.6
1311.57
1166.47
1104.5
1017.83
939.3
880.333
831.233
756.4
713.8
652.033
585.533
567
533.267
478.133
444.6
402.1
384.033
362.4
316.333
296.4
282.5
247.6
250.567
222
197.4
182.967
165.733
145.5
132.2
128.633
113.967
98.1667
86.7
80.6
71
64.4333
53.2333
46.1
39.8333
31.0333
26.8
21.4667
14.9667
9851.03
9753.33
9656.53
9561
9464.73
9371.43
9278.53
9186.73
9092.73
9002.97
8915.37
8793.73
8738.37
8592.6
8525.67
8486.3
8365.73
8065.4
8021.3
7886.1
7870.97
7675.13
7537.07
7169.87
7147.03
6784.47
6688.3
6246.7
5825.3
5500.97
4808.37
4935.23
4744.97
4242.03
4167.63
3778.9
3689.97
3442.37
3249.07
2959.47
2840.1
2756.9
2557.87
2362.13
2158.47
2090.87
1930.07
1798.47
1677.5
1546.17
1462.97
1343.6
1300.53
1174.6
1100.8
1036.53
931.1
907.133
787.067
762.333
731.1
683.533
609.833
560.933
507.333
497.367
450.5
403.633
381.367
361.633
324.4
296.567
290.5
255.733
236
213.067
201.333
189.633
166.233
148.6
138.767
125.667
109.467
95.5667
87.6667
77.4333
73.1
62.5667
52.2667
46.8667
40
31.5667
26.1
21.6
15.3667
9850.83
9753.13
9656.37
9559.83
9463.93
9370.83
9279.13
9185.9
9096.8
9003.83
8916.83
8827.23
8742.83
8645.87
8557.67
8434.03
8349.67
8267.47
7964.03
7929.6
7793.5
7543.87
7522.47
7224.23
7198.93
6913.63
6210.8
6136.5
6003.73
5477
5714.13
5278.77
5414.6
4486.4
4106.33
3817.37
3725.57
3527.2
3193.93
3032
2875.37
2732.67
2504.5
2357.67
2215.63
2073.97
1909.7
1819.53
1671.3
1594.4
1427.93
1389.67
1300.53
1206.4
1089.57
1010.57
960.2
886.967
816.167
779.1
710.533
646.867
606.467
559.633
523.9
492.967
442.333
406.767
379.567
360.4
322.667
309
277.733
255.667
239.433
217.667
206.133
186.533
168.233
148.9
135.8
126.133
111.9
97.6
91.7667
79.1667
69.8667
62.8333
53.1333
49.3333
40.3333
33.4
25.4333
21.4333
14.9667
9851.1
9753.43
9656.17
9559.67
9465.07
9371.4
9278
9186.57
9094
9004.1
8917.9
8826.97
8743.57
8613.43
8477.27
8401.43
8299.03
8248.7
7964.47
7819.63
7840.67
7538.57
7489.3
7465.33
7132.1
6715.2
6479.4
6120.7
5704.03
5507.7
5550.13
5051.53
4597.67
4470.67
3918.4
3848.8
3777.07
3377.7
3199.03
3000.17
2754.3
2668.83
2498.27
2384.1
2208.17
2029.9
1901.47
1771.17
1670.5
1610.47
1489.43
1391.87
1252.57
1180.07
1089.6
1025.97
938.567
880.967
808.567
753.367
708.567
641.1
587.967
566.767
511.2
479.867
450.4
423.9
390.5
338.133
321.367
305.267
282.6
260
226.667
216.933
197.267
177.667
170.033
154.767
142.767
122.733
109.567
100.767
87.6
83.2667
70.2
60.5667
56.8667
49.4667
40.6
33.6333
28.8667
21.2
18.2
9851.4
9753.27
9655.67
9560.5
9465.47
9370.83
9278.33
9186.53
9093.83
9005.13
8915.63
8829.8
8739.33
8652.73
8572.6
8428.5
8344.67
8189.07
7959.33
7939.83
7686.27
7609.3
7549.1
7319.8
6968.47
6787.37
6639
6234.87
5897.43
5352.83
5545.37
4726.33
4950
4424.4
4025.2
3873.17
3570.13
3397.2
3173.53
3024
2812.1
2740.3
2481.57
2272.27
2239.63
2080.57
1863.83
1807.2
1696.9
1578.17
1471.27
1354.23
1257.83
1159.7
1122.37
1025.83
957.133
890.733
804.167
750.767
730.1
665.967
595.1
558.567
533.2
482.8
449
419.967
370
349.4
329.1
299.033
278.167
266.3
234.767
228.133
203.233
182.9
164.8
150.567
134.5
121.667
108.933
99.7667
90.3667
77.6667
66.1
61.8333
53.1
49.3333
40.5333
30.6
27.7667
19.8
16.1333
9851.2
9752.8
9655.93
9560.57
9465.3
9371.3
9277.63
9189.3
9096.47
9005
8883.67
8826.23
8740.7
8603.63
8570.6
8288.47
8247.27
7984.27
7842.43
7903.73
7565.6
7665.33
7497.83
7165.13
7093.2
6622.57
6610.3
6134.43
5875.4
5484.6
5165.4
4837.87
4553.33
4320.73
3905.77
3917.47
3614.63
3411.87
3327.37
2950.6
2865.47
2587.57
2511.57
2331.1
2204.13
2075.43
1993.63
1821.73
1641.53
1517.6
1479.93
1397.5
1227.7
1179.83
1124.33
1010.6
940.6
855.333
822.267
744.8
698.267
665
596.933
559.867
522.167
495.967
449.433
414.667
377.9
346.233
334.667
288.7
284.2
249.833
239.8
224.833
206.833
183.7
162.767
146.233
132.667
124.333
111.4
98.6667
94.4
81
73
60.1667
53.6667
48.5333
39.5
32.1
25.3
22.0333
16.0667
9851.37
9753.3
9656.7
9560.47
9465.63
9370.67
9277.23
9185.87
9096.6
9003.5
8914.63
8828.77
8739.4
8656.03
8512.8
8487.13
8331.9
8154.83
8059.3
7999.57
7971.57
7557.83
7208.13
7070.37
7012.87
6838.93
6492.77
6414.3
5880.1
5440.47
5364.6
4823.77
4345.23
4703.8
4242.57
4109.73
3555.07
3419.33
3184.9
3020.37
2843.5
2623.9
2504.5
2344.8
2198.6
2056.8
1896.53
1754.97
1669
1611.1
1449.1
1385.37
1232.37
1197.43
1135.2
1022.33
962.867
875.667
808.967
793.933
698.733
680.233
611.733
584.967
527.833
459.067
442.967
423.5
372.033
365.133
321.267
309.7
276.5
263.3
234.7
218.867
200.9
183.367
160.967
148.3
133.167
123.667
112.9
105.167
86.9667
84.5333
70.6333
60.4
52.4333
48.6333
39.0667
31.4667
26.7667
18.8667
15.4667
9851.43
9753.4
9656.6
9560.9
9465.07
9370.8
9278.13
9186.57
9095.53
9005.97
8917.23
8783.47
8695.97
8653.83
8572.77
8442.87
8348.03
8218.4
8238.77
8018.87
8072.6
7520.93
7540.7
7237.03
7027.23
6948.47
6315.77
6075.43
5749.67
5868.67
5420.07
5065.6
4796.67
4474.17
4276.87
3798.87
3594.73
3519.97
3198.6
2979.53
2817.43
2703.73
2513.73
2294.7
2164.17
2015.33
1931.9
1767.37
1697.07
1555.57
1471.5
1384.9
1257.1
1138.23
1091.43
1034.47
950.4
890.867
810.533
775.833
695.733
641.067
584.733
571.7
527.8
483.9
449.967
419.4
376.567
345.933
324.9
287.533
275.133
250.233
236.733
212.9
196.533
179.033
170.067
153.733
137.2
124.433
109.767
103.533
92.9667
82.4
70.6
64.5333
55.8333
45.6
38.8667
32.4667
28.4667
21.0667
16.0667
9851.13
9753.43
9656.2
9560.07
9464.73
9370
9277.97
9184.33
9095.13
8934.9
8875.7
8826.43
8684.9
8653.63
8566.73
8422.8
8375.93
8275.57
8037.37
7705.27
7658.77
7563.53
7424.47
7178.47
7203.8
6575.17
6480.93
6198.9
6214.37
6004.63
5798.87
4946.53
4495.7
4404.1
4480.93
3807.97
3819.5
3473.1
3334
3090.83
2868.83
2678.57
2525.43
2285.47
2201.7
2068.13
1903.33
1807.57
1683.77
1608.23
1464
1307.07
1246.8
1160.3
1111.73
990.2
956.333
883.933
794.333
755.933
738.167
659.1
614.967
578.833
515.433
488.333
452.3
426.767
378.533
349.8
321.733
309.6
283
257.6
236.9
218.667
200.033
175.133
167.4
160.8
140.3
123.233
112.3
104.3
91
82.3333
68.5333
62.4
56.3
52.1667
40.1667
33.9667
28.1667
21.2
14.3
9851.27
9752.63
9655.27
9560.23
9466.8
9371.93
9278.9
9185.73
9093.73
9005.07
8916.27
8825.77
8740.73
8651.97
8518.83
8435.17
8399.93
8074.7
8080.27
8037.17
7784.03
7924
7344.23
7347.43
6968.53
6618.47
6798.93
6333.4
6057.7
5496.2
5128.57
4788.93
4802.13
4174.67
4340.8
4011.77
3755.47
3432
3217.53
2939.57
2851.33
2676.2
2419.67
2314.3
2130.93
2091.9
1978.3
1810.23
1649.27
1526.37
1475.7
1412.4
1304.03
1167.13
1138.43
1045.23
937.167
896.1
839.967
761.067
707.8
648.933
616.233
560.467
546.867
476.767
445.733
423.3
392.5
355.133
327.467
289.2
282.233
263.267
225.633
225.867
204.633
183.867
163.633
152.1
136.267
123.8
114.6
103.867
91.4667
81.3
69.6667
62
56.5
45.8333
40.3667
33.6333
28.3333
20.6
15.6
9851.17
9753
9655.7
9560.03
9464.43
9371.13
9277.87
9185.57
9095.57
9006.43
8920.4
8828.8
8739.2
8656.87
8533.1
8430.63
8312.17
8260.33
8240.67
7968.43
7890.93
7452.3
7535.17
6999.13
6900.97
6589.73
6668.3
6340.93
5619.27
5352.67
5385.2
4938.37
4436.13
4465.07
4110.93
3910.2
3512.3
3441.8
3210.3
3010
2839.1
2630.53
2551.57
2389.4
2182.63
2051.87
1897.77
1794.03
1654.6
1606.9
1422.57
1387.73
1266.37
1179.53
1112.4
1030.23
962.733
890.233
816.033
753.733
711
654.833
618.6
559.7
526.733
475.567
433.5
407.433
390.433
342.533
327.9
301.133
270.833
257.233
240.067
221.767
205.3
181.9
164.033
149.467
142.267
127.267
115.8
99.2
89.1
81.4
70.5333
63.9333
53.4
48.3667
42.4
34.0333
25.5667
22.8667
14.4
9850.7
9753.4
9656.1
9561.3
9464.8
9372.33
9278
9154.2
9096.2
9005.9
8915.13
8829.8
8740.8
8651.57
8439.17
8449.07
8403.77
8210.6
8132.67
8016.87
7739.1
7343.43
7572.07
7458.7
6918.2
6804.5
6311.43
6112.4
6062.57
5895.43
5642.2
5176.67
4687.2
4289.6
3978.57
3786.03
3655.83
3477.37
3160.9
3069.87
2817.2
2734.9
2445.1
2351.23
2167.9
2015.63
1950.2
1836.33
1619.6
1515.93
1432.8
1367.3
1282.37
1180.93
1065.17
1034.2
961.4
884.367
832.967
734.633
711.067
664.967
591.933
575.6
526.533
483.3
440.233
412.9
382.367
359.167
333.933
304.833
283.633
257.567
242.133
218
194.3
176.933
170.767
149.567
142.1
126.767
113.033
97.8
91.6
78.4
70.5667
63.4667
54.7667
45
40.7667
32.8333
25.8
21.7667
15.7333
9851.4
9753.1
9657.03
9559.83
9465.83
9372.6
9277.97
9188.63
9094.03
9004.5
8915.3
8796.07
8740.97
8655.13
8570.9
8321.67
8327.63
8320.2
8137.93
8044.3
7947.3
7803.73
7779.63
7386.53
7027.13
7058.57
6475.67
6302.23
6017.33
5916.87
5411.9
4923.13
4571.37
4228.13
4100.47
4035.13
3664.3
3736.1
3267.47
3015.63
2817.2
2643.1
2453.13
2294.17
2198.77
2053.53
1955.17
1811
1708.07
1618.23
1490.03
1359.4
1275.83
1223.9
1121.4
1008.3
984.433
880.2
830.8
743.8
712.533
667.5
608.367
556
539.667
494.667
447.267
431.4
390.7
348.9
329.233
297.933
275.567
265.1
233.967
216.533
196.367
180.033
168
149
139.167
117.667
110.6
98.9667
89.8333
79.9
67.8667
63.3333
53.1
47.9667
42.8333
33.6
26.5667
21.8667
15.4333
9851.1
9752.77
9655.8
9560.67
9467
9371.3
9277.5
9184.67
9094.53
9004.6
8916.73
8828.83
8742.03
8656.77
8475.5
8438.3
8292.77
8263.43
8062.6
8026.9
7854.23
7823.43
7705.43
7486.23
6715.63
6666.13
6354.23
5984.43
5585.9
5658.93
5522.9
4928.33
4760.67
4450.43
4273.53
4033.77
3598.47
3389.97
3203
3026.9
2847.3
2626.93
2552.17
2347.73
2216.07
2049.8
1922.7
1761.6
1738.87
1569.93
1428.87
1344.8
1343.83
1206.37
1110.07
1055
947.767
899.267
827.6
763.033
715.967
653.067
603.267
589.5
527.533
489.633
439.533
397.9
384.167
350.8
328.133
305.733
279.333
258.8
235.5
216.133
199.533
174.933
162.8
157.4
137.667
127.233
112.667
104.933
91.1333
80.8333
69.7333
61.5
52.8
49.1
39.1667
32.0667
28.4
20
15.8333
9850.73
9752.9
9656.3
9558.93
9465.43
9371
9279.87
9184.9
9061.9
9007.03
8915.63
8827.87
8740.07
8654
8530.33
8483.73
8277.37
8267.63
7997.57
7910.3
7834
7521.9
7309.2
7212.87
6986.07
6741.27
6689.57
6156.4
6064.47
5844.33
5296.67
4920.97
4884.83
4224.9
4016.7
3719.1
3758.6
3424.33
3165.8
3032.37
2816.8
2729.5
2511.87
2341
2189.33
2060.1
1920.17
1856.27
1698.63
1554.07
1422.67
1372.8
1294.7
1168.8
1119.17
1011.6
957.9
922.533
791.567
753.833
716.167
642.133
598.533
578.633
525.367
492.733
464.4
429.6
389.533
346.3
316.1
305.8
277.933
249.2
231.933
212.4
197.4
189.3
165.1
151.6
137.8
123.167
114.167
100.367
86.7667
79.9333
68.0667
61.1
55.9667
46.4667
41.3333
30.9667
27.7
19.3
14.8
9851.1
9752.73
9656.67
9560.27
9465.73
9370.63
9277.23
9162.83
9094
9007.83
8911.73
8801.33
8740.8
8643.93
8351.27
8321.4
8348.5
8269.53
8032.2
7975.9
7766.6
7455.83
7550.87
7577.1
6726.13
6717.7
6619.53
6103.3
5948.67
5394.83
5570.47
5287.23
5027
4576.2
4419.07
3958.43
3606.5
3388.9
3248.9
3096.47
2778.47
2647.77
2530.87
2328.13
2194.3
2064.67
1935.57
1830.7
1703.47
1609.27
1472.53
1346.27
1263.9
1188
1128.97
1017.57
912.767
856.167
826.467
749.767
714.567
664.333
600.333
560.367
521.1
483.133
469.6
409.5
381.567
353.767
334.2
298.2
286.167
254.633
237.567
213.933
189.4
171.9
160.867
145.7
132.667
124.433
109.7
99.1
86.3333
82.1
74.2667
64.1
53.2667
45.8333
40.9333
31.4333
26.3667
21.1333
15.5667
9851.17
9752.53
9655.77
9560.87
9465.57
9370.47
9254.17
9188.47
9094.67
9005.7
8874.63
8826.2
8739.17
8613.5
8479.9
8485
8194.43
8267
8097.47
7856.93
7841.87
7253.67
7406.43
7197
6782.67
6742.9
6495.93
6277.2
5912.83
5732.73
5360.9
5046.57
4670.6
4560.73
3995.9
3851.37
3743.97
3528.17
3232.6
3008.6
2879.63
2730.7
2464.93
2429.9
2147.9
2023.77
1915.63
1797.6
1701.33
1563.87
1513.1
1339.23
1257.57
1215.4
1146.47
1038.9
978.2
870.367
821.833
764.767
716.6
646.2
607.867
558.667
517.6
483.667
453.833
404.767
389.533
363.3
325.033
306.467
273.267
255.167
224.633
221.367
192.5
182.333
158.433
146.333
136.567
124.933
107.6
101.433
89.8667
81.5
72.3667
63.3
54.5667
46.6333
39.5333
31.4667
27.0667
21.8333
16.1667
9851.53
9753.17
9656.97
9560.57
9464.87
9370.27
9278.63
9187.4
9095.37
9004.17
8917.33
8828.93
8743.47
8564.13
8443.03
8484.7
8308.63
8217.37
8011.43
7874.3
7937.9
7696.43
7426.73
7290.33
7057.5
6856.23
6512.83
6346.57
5986.87
5634.67
5043.47
4921.23
4696.23
4342.7
4326.8
3895
3652.7
3292.23
3205.53
3002.57
2904.97
2668.9
2512.97
2324.07
2141.87
2105.77
1887.77
1818.27
1698.17
1544.53
1484.33
1360.63
1285.83
1149.43
1068.33
1033.63
928
870.033
808.033
764.3
705.833
674.233
606.233
568.467
513.267
485.2
450.067
426.5
370.033
340.233
330.167
295.867
279.7
249.367
230.867
222.467
199.033
179.733
166.867
150.733
132.933
125.067
114.5
103.8
93.5333
77.0667
70.8667
60.5
54.5667
46.3
41.6
32.5333
27.6667
21.1
16.4667
9851.2
9753.33
9656.73
9560.33
9464.33
9371.03
9279.8
9186.47
9096.03
9003.83
8916.6
8827
8698.83
8653.13
8568.97
8395
8300.23
8247.07
8226.6
7980.8
7691.13
7315.6
7484.93
6999.47
6884.27
7070.3
6914.53
6163.37
5895.37
5751.17
4826.2
4898.87
4465.6
4460.77
4030.03
3914.93
3537.57
3539.9
3164.17
3044.93
2843.37
2703.43
2513.3
2300.93
2223.43
2007.33
1917.57
1803.13
1730.57
1522.73
1453.93
1378.3
1278.83
1195.27
1115.63
1035.13
977.967
879.667
812.567
763.933
704.133
670.033
611.767
548.733
508.3
491.267
450.667
421.833
392.867
348.033
319.367
307.867
272.267
259.667
231.567
215
198.867
190.9
161.3
148.6
132.333
120.5
111.667
104.533
93.9667
80.7333
71.8
63.3
55.8667
44.9333
40.8333
32.2667
25.4333
21.5
14.9333
9851.07
9753.07
9656.13
9560.4
9464.8
9370.83
9277.07
9187.17
9095.77
9003.37
8914.6
8697.07
8742.57
8608.53
8568.5
8437.03
8355
8256.37
8030.97
8028.17
7967.13
7643.03
7344.27
7052.47
6746.5
6835.13
6701.67
6253.83
6097.37
5424.53
5440.23
4809.43
4530.67
4398.63
4152.4
4274.17
3555.13
3482.73
3170.1
2893.73
2900.93
2692.17
2532.8
2282.83
2190.87
2047.5
1.69416e+08
3.77739e+08
3.99303e+07
2.089e+08
4.43933e+08
5.60973e+08
1.94854e+08
2.09909e+08
3.1306e+08
1.44162e+08
423301
5.6181e+07
1.12501e+08
6.25489e+08
2.14514e+08
1.27033e+08
3.86956e+08
5.33907e+08
3.55152e+08
5.34741e+08
3.28515e+08
6.48424e+08
3.784e+08
2.26141e+08
2.48093e+08
6.5039e+07
278.667
256.5
239.433
218.867
191.933
187.3
162.933
156
141.133
125.667
112.667
107.067
88.2667
83.2
73.4667
63.1
3.92661e+07
3.66911e+08
4.83205e+08
2.74362e+08
4.73713e+08
4.93207e+08
3.26837e+08
