Transmission rate explicitly defined as it changes, innoculation rate varies from 1 to 95 in the list, but are not explicitly stated for ease of copying and pasting
40.6
42.0667
40.5333
39.5667
36.1667
38.6333
38.2
39.0667
36.8
37.3667
36.4667
34.0667
33.6
32.7667
33.5
33.6667
29.1667
30.9
29.7667
31.4333
27.7
29.6
28.6333
25.7
27.9333
26.4333
25.8333
25.8
22.6333
25.1333
24.0333
23.8667
21.8667
23.2333
22.9
22.5667
20.5667
19.6
21.2
20.1333
18.4333
18.1
17.6333
17
18.0667
17.3
17.5
18.2667
17
15.6667
14.3
16.0333
14.3
14.1333
14.0667
13.7
12.8333
12.0333
11.2667
11.3
10.6
10.4667
9.93333
9.43333
8.93333
10
8.1
8.53333
7.13333
8.76667
8.3
8
7
7.83333
6.33333
5.7
6.1
6.13333
5.76667
5.06667
5.4
4.73333
4.6
4.06667
3.63333
3.7
3.83333
3.2
2.23333
2.03333
2.33333
2.03333
1.5
1.13333
0.9
155.167
155.133
151.333
143.6
148.467
146.8
141.033
132.667
132.933
119.367
130.2
118.033
115.7
112.633
106.833
104.867
103.433
98.3
99.8333
90.1667
97.4333
93.2333
90.4667
84
83.8
84.8
78.0667
77.4667
76.5667
75.3333
70.8333
61.0667
66.7667
62
58.1667
58.1333
56.8667
57.2667
57.2
50.1
53.4333
50.9333
49.4667
48.0333
48.9667
42.9667
45.2333
42.9
39.9333
38.0667
38.3667
38.3
35.6
35.6
31.5667
31.2
31.3
31.8
27.4667
27.7667
28.1333
26.1667
24.7
22.3667
23.9
20.8
21.2333
21.1667
19.6333
19.2667
18.4
17.5333
16.1333
14.6333
15.2333
14.0333
11.2
13.4333
11.6
11.6667
10.3333
9.13333
9.06667
8
8.16667
6.93333
6.53333
6.3
5.43333
5.1
3.86667
3
3.83333
2.83333
2.13333
460.4
487.267
482.033
443.767
417.233
394.333
380.9
372.567
356.333
337.333
330.7
311.4
283.6
287
295.233
277.433
260.567
240.333
240.9
232.6
224.633
208.433
201.767
191.2
192.467
180.6
175.733
167.667
164.7
160.067
156.9
143.1
133
134.267
130.733
122.133
124.367
122.9
105.867
108.367
108.4
102.167
95
91.9667
87.1667
84.0333
86.5667
78.4333
77.8667
74.7667
65.5667
67.4
67.8667
64.7333
61.9333
58.4667
51.4
54
48.7667
51
45.0333
45.1667
45.7667
43.6333
38.4667
38
32.0333
30.6667
34.1333
31.1667
29.6667
28.6333
23.5667
24.8667
23.4333
20.1667
21.7667
20.3
18.1667
15.9667
14.5333
15.6667
12.7
13.8
11.6667
11.6333
10.6
9.1
7.86667
6.96667
5.3
5.5
4.76667
3.63333
3.06667
1246.67
1179.13
1097.7
1058.57
1017.5
927.767
918.7
840.133
822.6
775.133
760.167
693.767
657.667
613.333
607.167
567.167
540.767
482.367
493.867
452.233
442.567
403.567
413.767
388.667
358.833
340.633
339.333
304.633
296.867
290.867
282.633
258.933
248.633
247.6
228.9
235.033
216.6
206.7
199.433
194.933
175.367
174.4
170
157.933
151.633
138.967
133
131.8
125.167
125.7
110.233
102.2
101.3
102.733
92.6
89.6333
86.5667
86.6667
76.9667
76.6
76.1
72.8
65.5667
58.5333
58.2667
58.7667
53.5
51.0333
47.2667
49.8
44.9667
42.3
35.3667
38
33.9333
33.1
29.0333
27.2
26.0333
24.7667
23.5
22.7
19.3
18.3333
14.8333
16.3667
13.5667
12.1333
11.4667
9.86667
8.83333
7.4
5.3
4.83333
3.83333
2630.83
2520.87
2404.9
2220.77
2137.3
1975.93
1809.13
1706.7
1607.03
1526.83
1440.93
1353.53
1243.97
1165.57
1141.9
1051.07
1011.6
927.2
905.733
798.933
789.967
746.567
696.3
667.433
671.767
588.8
594.367
533.133
504.033
469.233
451.6
423.833
399.233
404.567
376.4
318.533
352.433
328.433
308.3
276.867
263.567
263.7
261.233
223.1
225.767
217.767
206.667
190.533
189.833
171.4
168.933
153.767
146.767
139.533
133.333
131.4
119.967
116.467
108.6
105.667
99.2
95.4667
87.7667
86.1
78.7667
75.2667
74.3667
65.8333
61.7667
56.8667
56.7333
53.7333
50.2
44.9667
45.1333
40.4
36.1667
33.0667
33.9333
31.6
26.7333
25.8
25.7667
23.2667
21.0667
18.8
15.7333
16.0333
13.5
11.1
11.2333
9.46667
6.5
5.46667
5.86667
4909.87
4774
4338.2
3945.37
3757.4
3420.23
3149.37
2998.67
2870.13
2623.23
2474.6
2246.53
2075.4
1931.37
1809
1734.1
1578.33
1538.87
1459.5
1333.1
1239.3
1137.57
1063.43
1065.37
988.2
933.767
825.067
796.233
751.433
735.933
705.733
659.567
652.667
569.433
561.433
515.4
484.4
469.867
432.3
415.067
387.533
365.3
345.067
331.333
314.633
293.633
284.567
261.067
250.8
223.7
221.633
218.667
202.7
195.333
182.233
170.2
160.733
157.733
160.333
134.133
127.833
124.033
116.833
112.233
97.7667
103.767
92.0333
82.9333
81.9333
77.8
75.4667
67.4333
58.9333
56.4333
52.7333
49.9
46.1333
43.6
42.1333
39.5333
39
33.9
27.0667
28.3667
25.2
21.1333
22.8667
17.6333
16.8333
13.7
12.1
10.3333
8.23333
7.53333
5.53333
7693.63
7001.1
6584.2
6198.1
5649.63
5421.13
4990.17
4742.93
4215.3
3997.37
3608.23
3332.97
3128.9
2918.6
2742.13
2414.8
2363.93
2267.9
2034.97
1870.73
1805.1
1710.93
1535.73
1495.3
1416.23
1336.57
1227.03
1125.03
1079.97
1027.87
961.2
855.467
860.467
775.567
738.733
698.8
646
598.833
611
564.4
496.133
482.267
446.867
435.133
426.5
374.567
366.233
361.4
334.033
321.467
288.433
292.767
257.967
251.033
226.4
220.667
204.6
193.8
182.4
175.467
159.667
157.367
146.833
137.333
130.8
123.467
108.5
110.067
97.6
93.6333
84.6333
81.3667
75.6
70.4667
63.0333
63.6
55.8667
52.7333
49.0667
48.6333
41.7
38.2
32.5
32.5
28.7667
24.4
24.2667
20.5667
19.7333
17.5
15.3333
10.7333
10.1333
7.93333
6.16667
8936.6
8674.23
8282.77
7858.83
7326.87
7036.47
6443.07
5988.67
5743.17
5358.53
4891.13
4632.43
4174.17
3992.53
3694.57
3478.2
3225.23
3051.53
2853.47
2667.37
2529.87
2256.77
2082.93
1991.63
1871
1725.1
1600.13
1542.93
1447.67
1328.97
1249.03
1201.3
1117.77
1013.23
1003.4
925.067
817
806.3
717.2
722.367
669.933
616.767
570.5
533.667
504.4
470.767
455.933
417.367
411.933
374.333
354.567
331.2
324
297.1
276.133
273.5
257
240.7
229.2
196.7
193
170.7
175.933
168.367
155.267
142.767
133.367
126.5
116.633
108.233
107.7
95.8
90.6333
88.1333
81.4667
68.4667
65.7667
58.5667
56.4333
54.1
46.7667
44.4333
40.8333
37.2
32.2
29.6667
24.5
24.2667
21.7667
19.7333
15.0667
13.2667
12
9.5
7.7
9612.3
9390.2
9094.77
8876.67
8500.17
7981.6
8069.3
7355.57
7059.77
6407.23
6191.83
5681.07
5382.43
5003.03
4633.27
4410.47
4142.5
3893.43
3594.23
3298.43
2963.03
2878.27
2726.03
2527.47
2310.77
2142.7
2032.33
1870.27
1774.07
1701.23
1524.47
1471.93
1367.7
1224.63
1227.6
1088.63
1050.2
970.533
879.133
877.433
764.7
737.433
710.9
675.8
629.167
590.467
552.633
526.067
504.4
459.5
430.867
397.767
366.133
352.267
338.833
316.9
289.533
277.733
264.933
242.967
217.067
219.2
208.167
186.8
175.567
162.2
160.467
138.067
127.2
129.733
120.733
110.9
104.6
97.1667
85.5
80.8333
75.5667
69.8
62.7667
62.3333
55.2667
51.2333
47.8333
39.2667
37.3667
35.7
29.4667
27.0667
21.8333
22.0667
17.5667
14.7667
11.5
9.1
7.9
9775.1
9673.53
9465.33
9250.8
9016.73
8800.9
8492.2
8227.73
8036.87
7488.07
7116.03
6797.37
6277.27
5972.97
5536.87
5249.5
4953.13
4414.93
4364.07
4042.13
3803.37
3378.3
3204.1
2958.57
2757.5
2617.33
2368.2
2356.9
2215.33
1948.37
1810.13
1719.13
1635.27
1540.37
1363.23
1346.07
1230.73
1116.7
1075.9
1033.3
926.067
881.9
844.567
783.067
750.533
686.3
650.467
594.5
561.133
532.9
503.7
464.033
437.967
407.2
400.367
367.3
322.867
313.067
292.333
287.567
269.3
240.833
236.067
216.5
200.1
187.1
180.333
172.367
149.367
142
132.433
124.167
113.933
110.067
101.7
93.6667
83.1333
81.5333
74.3333
65.2
58.2667
58.3
51.9
43.4333
40.5
34.6
34.7667
31.6667
24.2
20.1
18.4667
16.7
12.2
9.2
7.73333
9822.1
9730.57
9555.73
9389.13
9244.5
9026.1
8779.97
8651.67
8278.4
8107.5
7703.57
7369.93
7018.03
6824.57
6346.5
5940.6
5379.2
5109.93
4804.53
4605.97
4292.8
3940.73
3821.73
3459.43
3253.63
2944.6
2879.43
2757.8
2517.2
2308.37
2202.43
2003.83
1812.4
1714.67
1604.6
1523.73
1397.3
1324
1246.63
1077.53
1081.4
1026.7
923.933
902.4
814.6
794.133
734.167
678.867
654.867
603.567
557.067
521.067
481.367
446.167
424.033
407
381.4
339.233
327.8
309.767
283.833
269.733
249.4
242.967
227.3
201.167
197.867
174.1
166.4
154.967
147.967
133.133
127.4
116.433
107.1
106.133
88.8333
83.2667
81.2333
66.7
65.8333
60.4
57.5667
51.4
43.8667
39.7333
34
33.4667
27.3333
24.6
20.8667
17.7
15.1
11.8667
8.56667
9841.77
9732.17
9612.27
9460.47
9414.3
9188.2
8981.2
8956.5
8685.7
8510.17
8167.4
7894.33
7813.3
7252.67
7122.07
6434.87
6043.07
5599.93
5218.17
4913.27
4776.87
4405.93
4190.37
3911.43
3744.3
3421.33
3123.1
2994.7
2738.43
2642.07
2399.3
2260.73
2120.7
2012.93
1772.53
1732
1589.1
1503.17
1400.5
1290
1174.93
1121.7
1083.2
989.567
942.467
859
809.8
762.933
699.967
657.4
630.767
576.8
542
518.233
481.867
422.6
413.533
398.733
354.533
342.033
331.067
290.467
275.7
265.433
248.833
221.767
215
201.767
183.833
173.967
155.1
143.9
136.567
126.633
117.533
106.567
104.533
89.9333
81.6667
74.9333
74.4333
61.5333
57.0333
55.9667
46.4333
41.4667
34.9667
33.1
28.7
25.7
22.7333
19.2667
14.1
11.3333
9
9846.5
9746.23
9650.5
9541.57
9426.43
9284.93
9128.83
9041.27
8949.33
8633.03
8440.67
8202.1
7814.13
7806.23
7380.13
6961.1
6828.7
6251.5
5802.03
5796.2
5022.87
4831.63
4758.6
4224.63
4145.17
3778
3482.57
3302.27
3108.4
2835.37
2706.93
2531.07
2357.3
2172.03
2024.07
1889.57
1752.77
1666.47
1524.43
1402.13
1303.27
1224.83
1154.63
1093.87
1035.07
962.7
908.1
823.967
793.2
756.433
673.267
634.467
601.567
540.567
525.233
470.033
450.7
420.333
405.433
366.833
356.4
320.867
297.4
275.3
263.067
239.333
227.1
213.3
189.533
183.5
165.167
154.133
152.367
135.333
121.633
111.033
107.333
100.367
96.9
79.9667
76.2667
70.4333
65.2333
54.8667
50.6
43.6
40.0667
35.6667
31.7333
28.3333
23.5
17.6667
16.4667
12.8667
10
9848.43
9749.6
9630.77
9556.4
9403.77
9329.4
9253.97
9067.57
8976.23
8713.33
8502.57
8309.43
7980.9
8028.83
7833.03
7388.9
6961.83
6956.6
6338.13
5874.3
5581.77
5269.07
4888.7
4481.17
4165.17
4067.9
3895.33
3535.73
3379.33
3196.77
2903.1
2837.93
2669.83
2416.4
2214.87
2123.13
2013.6
1787.5
1599.27
1558.83
1456.17
1386
1294.7
1224.73
1129.37
1019.43
949.933
919.2
797.533
785.3
739.8
686.133
642.633
590.267
556.833
515.7
482.033
439.5
426.933
402.133
367.3
346.733
324.4
302.367
288.2
263.4
237.2
222.3
210.467
198.967
181.033
172.533
154.867
137.633
134.033
126.767
111.633
100.067
96.1
88.7667
84.0333
71.0667
64.2333
60.7667
52.1667
52.0333
40.5
38.9333
33
28.7333
25.1333
18.6333
16.7667
13.3667
10
9849.77
9751.23
9655.27
9558.7
9451.07
9370
9258.4
9142.33
8924.83
8855.97
8751.43
8442.13
8448.37
7914.87
7718.13
7407.53
7400.3
6913.57
6575.93
6231.93
5705.3
5604.2
5542.9
5044.37
4633.57
4257.4
4073.77
3804.7
3530.07
3392.5
3113.47
2944.2
2637.83
2608.57
2428.9
2268.63
2104.3
2011.37
1830.93
1707.4
1582.2
1491.9
1316.7
1288.63
1204.3
1095.07
1041.8
986.233
896.767
834.667
778.567
739.267
684.033
652.867
594.833
562.733
513.6
497.167
451.667
423.267
399.1
372.4
348.6
323.467
295.2
276.567
254.933
229.533
211.6
210
184.367
173.033
158.033
150.067
141.5
131.3
127.133
111.033
101.667
90.6333
89.4333
76.4667
73.5667
63.7333
60.0667
52.7667
46.8667
38.3667
33.3667
29.4
25.1
20.6333
17.3
12.7
10.8
9850.33
9752.73
9655.03
9559.57
9463.3
9369.6
9237.77
9145.23
8996.33
8839.67
8886
8664.27
8264.7
8252.53
7977.83
7944.97
7360.8
7128.3
6517.87
6564.87
6518.03
5736
5574.77
5352.53
4952.5
4562.9
4149.97
4085.1
3843.03
3484
3295.23
3161.43
2868.3
2689.73
2611.37
2311.87
2249.6
2085.47
1936.97
1816.4
1664.83
1569.03
1447.4
1404.13
1290.83
1181.57
1146.67
1086.57
985.433
885.767
829.067
765.333
726.067
663.033
641.933
610.333
553.733
508.367
477.967
459.967
418.9
382.967
356.6
333.5
319.3
293.867
272.8
251.1
238.767
220.067
205.633
190.9
178.567
165.533
142.867
136.367
123.467
115.733
98.1
99.8667
87.5
76.4
72.1333
66.6
57.5333
50.6333
46.7333
40.7
38.3333
30.6333
25.2333
20.6333
18.2333
13.7333
11.8333
9850.7
9753.17
9655.73
9551.6
9464.27
9370.77
9206.6
9170.63
9086.73
8922.13
8808.37
8603.83
8446.03
8340.7
8210.93
7719.43
7820.57
7241.07
7104.83
6640
5990.9
5898.5
5808.8
5264.7
4932.83
4679.23
4578.1
4248.57
3867.87
3828.47
3502.53
3266.1
3090.37
2827.77
2732.3
2533.73
2362
2203.03
2082
1935.77
1786.4
1691.27
1518.5
1458.83
1349.77
1269.5
1197.3
1050.8
1031
960.567
891.5
816.633
776.867
718.067
695.367
636.2
599.233
534.033
496.2
477.933
431.6
406.633
377.867
348.4
326.033
290.5
289.3
269.067
252.5
233.433
204.2
189.1
176.733
175.167
152.733
147.2
135.2
117.033
108
98.7
91.2667
82.8
72.4667
70.8
64.8667
57.5667
49.1333
45.0333
35.3333
33.0667
27.9667
23.0333
18.6333
16
11.4667
9851.1
9753.17
9655.83
9558.9
9464.67
9370.83
9278.03
9182.6
9094.83
8970.47
8868.57
8690.4
8622.67
8382.17
8194.17
8126.93
7589.03
7306.1
7031.67
6873.5
6683.33
6570.3
5965.8
5908.4
5354.73
4921.63
4708.97
4475.7
4157.97
3890.9
3571.43
3370.2
3095.9
3060.17
2873.17
2637.57
2436.73
2275.53
2135.4
1985
1893.73
1722.9
1588.1
1486.77
1426.53
1332.63
1203.87
1161.77
1040.87
1021.87
916.167
878.833
797.733
749.233
694.733
619.567
631.167
571.333
514.4
475.633
459.6
421.5
385.9
386.367
343.433
328.533
301.167
280.533
257.567
242.333
208.167
207.1
194.633
170.2
163.667
146.133
140.067
123.333
112.933
101.967
93.9
88
79.2667
69.2333
65.4333
59
50.8333
44.0333
38.2667
29.9667
27.5333
25.4
18.9
14.8333
11.7333
9851.33
9753
9655.67
9559.8
9465.67
9370.97
9220.6
9183.6
9035.8
8972.17
8883.8
8702.23
8655.17
8354.03
8329.1
8061.5
7872.57
7728.6
7469.4
7100.87
7116.23
6397
6190.03
5929.7
5499.2
4969.6
4885.93
4494.8
4412.1
4007.2
3736.5
3487.5
3287.37
3056.17
2896.23
2750.93
2512.77
2334.17
2279.17
2088.97
1966.37
1856.57
1724
1523.27
1518.47
1370.7
1254.33
1156.03
1102.23
1050.23
970.867
936.967
835.233
796.733
756.2
664.533
664
588.233
546.567
504.733
489.667
442.867
419.733
381.667
347.767
334.833
300.2
287.767
265
254.533
222.033
201.7
195.9
180.9
166.1
152.967
141.567
135.433
115.533
105.9
95.9
90.0333
81.0667
72.1667
67.1333
59.1
51.8
42.7667
40.5667
32.8667
28.1333
25.2333
19.8667
16.8
12.7
9850.83
9753.57
9656.07
9560.3
9466.57
9372.43
9278.1
9163.53
9092.33
9003.7
8913.77
8823.3
8553.13
8431
8073.53
8091.3
7847.9
7644.93
7298.67
7190.43
6751.73
6861.7
6446.7
6228.23
5766.17
5376.23
4936
4801.67
4314.87
4187.9
3912.83
3678.5
3488.63
3204.07
2971.17
2779.7
2589.43
2459.47
2262.97
2149
1985.9
1855.9
1753.33
1682.67
1587.1
1432.27
1337.97
1181.53
1135.07
1076.2
1020.77
936.6
847.233
817.033
768.767
712.133
637.7
650.333
552.467
555.267
496.433
477.333
421.633
392.033
379.933
342.367
317.867
302.4
268.233
253.7
238.533
213.533
198.7
185.133
168.267
159.4
148.4
133.667
114.967
107.6
100.433
93.1333
82.8667
76.6333
68.8
57.6667
53.7
45.2333
40.6667
33.7
31.0667
24.8
20.8
17.3
13.2667
9851.03
9753.33
9656.17
9560.6
9464.47
9370.3
9277.27
9184.53
9093.8
8999.53
8917.37
8784.43
8567.83
8644.3
8314.27
8068.03
8026.23
7720.23
7394.53
6966.67
7109.07
6899.1
6164.73
5933.6
5781.23
5644.03
5117.33
4968.37
4599.47
4140.3
3815.17
3802.8
3558.23
3335.6
3027.63
2916.27
2729.4
2541.27
2471.9
2223.57
2045.67
1910.67
1840
1685.5
1570.27
1452.07
1405.6
1289.8
1192.27
1118.5
1040.1
962.633
925.7
836.9
803
715.067
667.133
639.567
586.067
547.367
518.967
466.1
440.133
414.267
382.333
349.467
339.833
297.967
283.8
250.5
248.067
225.067
214.067
190.4
176.167
168.967
154.567
140
124.567
119.767
106.533
93.9
88.1333
77.4
69.1333
65.5667
53.4333
46.3667
40.1667
35.8333
31.4
26.6333
20.8667
15.7
12.1333
9851.47
9753.73
9655.9
9559.43
9465.13
9370.3
9277.17
9149.23
9094.83
8975.6
8892.13
8826.93
8706.57
8599.2
8193.4
8430.37
8046.6
7904.1
7539.3
7383.73
7408.37
6494.4
6943.8
6459.4
5933.3
5341.2
5034.1
5093.1
4714
4538.03
4078.13
4011.73
3617.57
3405.17
3248.1
3020.5
2916.63
2759.5
2427.37
2348.33
2107.43
2084.5
1890.23
1827.53
1641.33
1480.93
1463.73
1335.9
1225.6
1099.67
1054.4
999.267
912.367
866.567
804.633
744.3
703.3
649.567
584.467
565.2
506.2
491.633
474.5
409.1
378.467
370.533
343.367
309.633
282.633
270.667
256.2
233.4
215.667
195.667
178.233
167.333
154.833
141.567
133.667
121.567
111.133
94.1667
86.9
81.1333
74.3
65.2333
53.9333
49.7667
42.3
37.5333
30
26.1
21.2667
16.6
12.5333
9850.93
9753.87
9656.37
9559.03
9465.87
9371.7
9277.17
9186.7
9096.63
8971.17
8911.77
8746.63
8630.27
8602
8418.2
8268.17
8350
7944.6
7836
7422.07
7017.87
7114.93
6595.1
6421.2
6278.03
5448.17
5630.3
5205.37
4964.77
4485.17
4317.4
3919.93
3691.7
3452.87
3268.23
2970.73
2862
2702.77
2577.1
2431.37
2211.13
2068.57
1933.03
1792.2
1654.8
1576.47
1425.93
1374.33
1245.4
1170.7
1100.73
1007.5
948.233
872.367
851.467
765.167
704.633
673.667
598.667
595.7
530.167
505.967
454.7
428.867
400.9
363.833
336.5
310.467
296.933
271.7
256.733
231.733
216.667
198.067
174.367
167.1
147.4
143.8
132.333
116.867
105.067
100.367
89.5333
85.4333
70.2667
67.9333
58.1
51.0667
44.3667
37.9667
32.2
27.1667
21.0333
18.0333
13.9667
9851.2
9753.53
9656.97
9560.87
9465.17
9370
9277.5
9186.73
9093.77
9004.33
8873.87
8828.6
8680.6
8654.17
8227.37
8394.8
8153.07
8157.93
7763.73
7710.57
7091.33
7349.03
6824.77
6496.87
6187.93
5883.83
5719.87
5394.6
4871.33
4594.33
4452.93
4137.07
3699.63
3502.9
3366.53
3131.03
2948.67
2833.23
2605.97
2404.17
2204.3
2098.57
2017.93
1886.57
1749.57
1633.53
1527.37
1383.13
1314.1
1243.73
1137.47
1117.67
991.967
914.767
857.2
796.433
747.067
692.3
628.467
594.4
552.7
514.733
494.3
440.267
431.8
378.467
351.6
324.833
308.033
277.333
262.233
247.933
209.4
215
186.167
175.1
163.233
138.4
138.167
117.2
114.767
102.333
88.6667
87.1333
72
68.4
54.0333
50.1333
44.3
36.6333
32.1
25.8333
24.2667
18.1333
13.1667
9850.97
9752.7
9656.13
9559.57
9465.57
9370.93
9279.4
9158.83
9095.5
9004
8917.83
8789
8732.6
8499.53
8408
8286.4
8081.1
8050.5
7751.47
7783.87
7487.23
7254
6882.97
6481.8
6265.67
6065.93
5737.13
5213.97
4901.07
5062.5
4380.87
4060.37
3764.93
3640.9
3485.4
3218.7
3020.17
2785.03
2609.87
2505.1
2308.77
2188.9
2024.3
1872.43
1841.07
1615.6
1556.17
1421.83
1337.03
1240.57
1170.03
1096.57
1032.17
901.233
876.9
803.8
752
691.433
660.033
607.533
583.1
521.533
483.667
476.8
413.7
394.233
369.867
331.667
311.7
280.033
259.833
248.867
231.1
212.967
189.033
169.767
160.633
143.3
139.033
125.533
112.4
106.467
91.1
82.4667
76.4333
68.5
60.7333
54.9333
46.5667
41.3333
32.8333
28.4
23.2333
18.4333
13.4667
9851.33
9753.2
9655.57
9559.3
9465
9370.87
9279.33
9185.43
9096.93
8971.2
8913.53
8776.1
8677.9
8614.7
8496.87
8420.9
7887.27
8003.83
7709.2
7639.83
7470.17
7089.13
6959.17
6640.03
6645.63
6439.9
5805.43
5450.1
5247.1
4808.17
4429.13
4105.73
4013.17
3775.37
3464.3
3279.97
3116.03
2880.6
2665.37
2488.83
2327.4
2189.2
2036
1916.5
1774.67
1674.77
1566.1
1497.27
1343.83
1242.6
1201.3
1089.03
1043.17
955.933
888.2
825.467
740.9
701.1
680.7
610.9
571.633
560.9
495.367
468.6
424.8
396.433
365
344.433
307.5
292.4
268.1
243.767
228.567
210.167
195.133
179.167
173.033
156.267
142.733
131.367
115.433
104.967
92.1333
81
79.1667
70.5
60.2
52.4667
45.4667
40.3
35.2667
27.9667
22.4
17.3667
13.6
9851.03
9752.37
9656.03
9560
9465.57
9369.97
9279.7
9186.83
9096.2
8963.8
8914.47
8826.77
8739.83
8607.97
8527.03
8284.97
8070
8165.97
7982.7
7404.97
7500.2
7268.3
6950.8
6645
6380.73
6055.53
5855.03
5620.5
5127.87
4715.13
4669.77
4152.7
3941.5
3674.27
3474.67
3294.5
2988.4
2895.33
2653.87
2503.37
2396.17
2245.83
2118.7
2022.53
1894.63
1714.03
1581.4
1497
1403
1344.8
1220.73
1127.77
1024.07
985.2
883.2
851.667
751
726.6
686.533
619.333
594.5
529.333
499.867
461.767
418.867
402.8
379.733
354.133
314.333
292.367
283
253.733
237.5
214.433
200.7
179.067
168.433
154.833
144.2
129.167
118.9
104.667
92.6667
81.0667
79.8667
72.9333
58.2333
53.8
46
41.9333
35.1333
28.3333
23.3667
18.3
13.2
9851.07
9753.07
9656.1
9560.77
9465.43
9372.67
9277.6
9187.93
9095.5
9004.77
8885.97
8788.77
8704.57
8619.3
8475.73
8412.03
8198.17
7998.7
7834.07
7834.13
7503.03
7205.8
7164.67
6727.57
6718.1
6183.67
5855.37
5379.77
5373.03
4926.5
4502.03
4544.7
3968.43
3891.1
3598.07
3358.77
3181.63
2986.83
2771.7
2582.63
2414.87
2330.57
2172.63
2025.87
1826.67
1715.4
1664.43
1481.33
1401.1
1360.37
1229.13
1127.73
1060.83
1007.97
941.133
854.7
805.667
776.367
689.433
630.833
590.8
552.7
521
478.633
453.933
407.667
383
345.567
335.333
299
279.733
259.933
242.6
215.933
199.033
176.533
166.7
155.267
138.067
130.9
117.267
112.067
98.0667
85.5667
76.6333
73.1667
63
53.1667
45.8333
40.2
33.1
28.4667
22.3667
19.0333
12.7667
9850.87
9752.93
9655.67
9560.03
9465.47
9369.6
9279.03
9184.73
9097.13
9005.53
8915.1
8793.63
8670.63
8589.27
8430.13
8424.27
8263.1
8013.8
7836.47
7677.5
7680
7722.77
7015.13
6488.07
6400.17
6185.03
5698.5
5516.5
5532.6
5006.83
4924.47
4444.67
4051
3782.4
3641.77
3375.23
3132.77
3005.7
2752.8
2587.07
2495.6
2290.77
2154.63
2034.03
1882.43
1773.57
1589.8
1538.4
1456.03
1351.9
1214.83
1159.63
1053.4
999.5
955.567
858.4
806.133
756.6
696.633
612.667
608.467
540.167
533.5
478.4
454.233
412.567
370.6
364.3
321.133
303.167
285.5
256
243.033
215.933
213.733
192.333
172.633
157.833
145.9
139.167
118.8
110.633
93.7667
91.9333
79.6
71.9
64.5333
54.5333
47.2
44.0667
35.4333
29.2667
22.8333
18.3667
14.5
9851.1
9753.3
9656.07
9560.1
9464.93
9372.33
9276.73
9186.97
9064.87
9004.83
8881.03
8786.97
8700.83
8499.6
8551.57
8288.43
8292.8
8095.2
7810.67
7733.03
7748.17
7302.7
7052.13
6577.17
6525.3
6332.17
6015.8
5537.93
5204.4
5112.8
4737.3
4561.93
3995.87
3901.4
3572.73
3361.03
3259.1
3153.63
2807.07
2740.73
2480.07
2355.33
2197
2024.3
1929.87
1842.23
1684.53
1579.7
1447.23
1334.67
1283.33
1181.1
1109.53
994.533
901.2
890.433
797.733
759.1
719.233
666.4
603.5
575.7
544.167
500.033
460.433
435.867
391.067
360.233
340.233
300.667
284.7
264.967
257.9
225.2
211.6
187.833
178.1
160.6
145.633
135.667
121.167
109.267
94.2667
92.2667
80.4
71.2
64.1
58.3667
47.7667
42.5667
35.5333
30.4
24.4
18.6333
13.7667
9850.73
9753.23
9656.77
9560.03
9465
9371.13
9278.8
9184.67
9094.13
9004.4
8915.8
8754.17
8741.93
8659.63
8567.43
8266.4
8309.87
8254.9
8060.63
7675.73
7673.5
7336.93
7232.33
7190.03
6458.1
6410.6
5838.5
5608.97
5320.87
4841.5
4631.43
4415.97
4111
3779.57
3719.03
3469.73
3221.67
3058.43
2829.03
2680.4
2517.1
2403.77
2262.07
2072.4
1962.13
1814.23
1697.07
1625.57
1492.37
1347.83
1257.8
1192.03
1112.53
1008.2
915.567
902.633
830.1
774.9
720.1
664.4
596.867
580.033
533.8
492.867
465.667
409.5
400.367
363.267
330.9
311.467
279.7
272.833
238.2
215.1
208.433
195.9
177
155.033
150.633
128.367
123.467
118.9
96.4333
86.8667
81.3
76.9667
63.5667
54.7
49.3
41.7667
33.8
29.6
23.6
18.6333
16
9851.2
9752.47
9655.33
9560.37
9463.5
9370.57
9276.87
9185.63
9094.4
8972.43
8876.73
8829.47
8738.9
8657.27
8526.53
8484.8
8191.63
7998.83
7765.87
7625.83
7513.4
7386.93
7185.33
6768.67
6637.5
6553.2
6274.8
5894.63
5553.23
5130.87
4719.87
4411.17
4200.37
3913.57
3789.17
3586.5
3278.83
3133.63
2974.73
2705.47
2572.73
2419.3
2290.13
2080
1933.57
1851.33
1696.3
1550.43
1482.97
1404.23
1279.73
1221.2
1111.63
1055.17
982.2
918.367
825.167
781.433
734.033
695.033
645.633
585.867
537.2
495.167
465.5
427.067
397.6
368.267
340.933
310.533
295.167
278.367
253.067
217.433
207.1
198.4
178.667
169.733
148.767
137.467
122.1
116.1
100.5
92.7333
82.9
72.5667
61.9667
58.1
49.9333
43.7333
36.5667
29.3333
23.2667
19.8667
13.9333
9851.13
9753.53
9656.43
9560.43
9464.97
9372.57
9279.43
9185.8
9093.73
9005.27
8914.77
8827.83
8743.13
8599.47
8474.93
8484.03
8255.33
8107.97
7749.1
7916.43
7777.63
7401.03
7160.97
6916.5
7091.23
6166
6241.17
5968.6
5495.73
5357.13
4735.37
4665.13
4007.53
4026.87
3789
3466.27
3212
3283.23
2968.3
2759.07
2592.87
2462.63
2328.73
2071.23
2049.27
1858.5
1745.13
1612.97
1498.53
1408.8
1330.77
1215.87
1143.1
1014.43
950.533
928.967
828
777.8
728.867
667.733
640.5
582.8
550.533
503.9
465.833
426.3
392.433
381.433
350.733
308.767
285.833
284.367
255.233
233.267
219.6
193.533
180.633
162.067
151.967
139.167
131.533
116.667
99.2333
94.9
80.1667
71.0667
67.3333
57.2667
46.7667
42.3333
38.0667
29.2
24.1
19.1333
14.9333
9851.4
9752.7
9655.97
9561.13
9464.33
9371.23
9277.87
9187.3
9059.2
9004.7
8887.77
8825.43
8741.07
8650.97
8525.07
8326.7
8346.3
7767.4
8092.03
7724.8
7794.27
7376.57
7414.9
7262.73
7117.03
6521.9
6556.5
5893.47
5207.83
5142.83
4973.9
4808.4
4191.87
3946.1
3829.47
3551.2
3315.83
3088.53
2923.8
2896.63
2617.87
2436.27
2290.77
2145.13
2016.87
1872.27
1740.03
1635.87
1518.9
1435.37
1340.23
1198.9
1144.9
1067.8
993.367
932
850.167
802.433
745.7
703.333
642.8
568.333
565.6
502.033
474.667
435.767
405.567
378.8
349.267
334.4
298.033
272.367
252.5
235.233
207.7
197.967
179
165.967
146
139.1
127.4
111.3
98.9667
96.6
83.9667
72.1667
64.2
57.1333
49.5333
40.0333
35.4333
29.6667
26.3667
19.8
15.2667
9851.27
9753.17
9656.13
9560.77
9465.8
9369.53
9278.67
9185.77
9093.17
9004.4
8914.03
8825.27
8739.97
8652.77
8480.4
8312.1
8302.5
8217.13
8102.67
7582.73
7469.63
7462.57
7495.63
7095.8
6644.77
6454.5
6206.8
5912.73
5952.2
5068.33
5095.9
4668.23
4269.93
3986.2
3759.17
3514.23
3436.17
3187.93
2979.8
2790.13
2585.9
2464.2
2308.4
2148.23
2033.37
1876.93
1772.67
1667.93
1572.83
1413.17
1319.67
1242.87
1187.63
1027.27
994.333
936
871.733
841.633
743.367
710.367
667.367
606.5
554.7
492.633
489.767
451.033
409.4
386.1
349.767
330
290.567
289.933
256.567
230.933
218.3
210.6
184.2
167.233
152.867
133.2
131.8
105.367
102.9
90.2333
83.8333
74.1
65.7333
56.8
50.6333
41.8
35.6667
31.1
23.5
18.0667
15.5667
9851.17
9753.3
9656.7
9560.37
9466.1
9371.23
9279.77
9185.9
9095.2
9007.33
8885.73
8828.27
8702.67
8575.57
8516.27
8479.1
8158.33
8134.7
7906.97
7656.07
7581.43
7210.6
7283.93
7258.7
6682.3
6715.93
6104.53
6036.4
5766.63
5178.17
5164.1
4789.73
4550.53
4131.03
3815.1
3487.5
3438.17
3204.33
3036.07
2819.7
2658.6
2490.6
2373.07
2224.13
2017.4
1828.7
1786.27
1670.23
1598.67
1447.53
1334.3
1227.43
1153.03
1099.47
985.933
928.533
867
832.467
734.433
666.767
666.167
590.7
556.8
534.833
500.2
457.3
411.333
384.267
352.267
331.433
290.233
274.033
262.467
237.667
221.8
196.867
186.967
168.767
155.667
136.2
123.967
117.367
106
93.5
83.5
77.0667
65.5
59.9667
48.5667
44.1333
36.0333
30.6333
25.1
19.2667
15.2333
9851.2
9753.37
9655.53
9560.17
9465.3
9369.43
9277.57
9184.6
9066.1
9003.63
8874.63
8800.57
8657.3
8595.93
8528.63
8184.17
8186.13
8162.6
8003.4
7938.8
7737.27
7683.87
7331.9
6748.67
6567.5
6452.67
6397.27
5768.33
6036
5503.27
4824.83
4869.97
4237.1
4071.77
4057.47
3619.37
3472.2
3193.97
3247.6
2816.07
2669.8
2451.27
2371.53
2209.13
2086.03
1891.7
1838.7
1681.37
1511.7
1428.17
1310.13
1314.17
1167.7
1096.3
998.033
938.167
912.767
821.867
764.133
699.633
647.633
605.567
564.633
512.567
485.3
445.5
411.967
388.7
347.733
316.233
300.267
280.1
257.467
240.467
213.733
203.233
182.6
175.1
156.933
143.967
130.733
119.5
100.067
97
85.7
73.1667
64.1667
58.8333
49.6
42.8
36.0333
30.4333
24.3333
19.4
13.8
9851
9752.97
9655.6
9560
9465.53
9370.27
9277.8
9186.43
9094.9
9005.43
8918.23
8826.8
8709.6
8578.17
8569.07
8382.97
8358.73
8124.07
8039.5
7821.63
7571.37
7634.13
7421.93
7028.73
6585.87
6607.93
6669.37
5733.9
5701.7
5276.43
5093.23
4332
4315.3
4312.57
4054.83
3796.07
3346.37
3187.87
3083.87
2799.13
2679.67
2476.5
2331.63
2077.5
2057.57
1930.97
1792.77
1670.53
1588.07
1519.4
1367.4
1281.17
1175.6
1108.27
1018.43
948.5
897.833
831.4
766.6
715.133
635.133
619.4
561.3
522.733
490.767
461.767
422.467
379.933
358.933
331.967
309.3
279.867
260.233
239.9
215
203.967
180.567
171.667
152.933
143.833
128.967
111.7
100.567
100.867
85.1
77
66.3
56.0333
52.3333
41.4
37.1667
30.6667
25.4
18.8667
15.1667
9851.17
9752.97
9655.8
9560.03
9465.37
9372.9
9278.03
9185.63
9095.67
9006.8
8876.27
8827.67
8740.73
8609.77
8572.57
8343.2
8153.4
8003.93
7830.03
7779.4
7305.43
7729.17
6954.6
7119.43
6996.2
6666
6190.63
6130.77
5747.3
5183.23
5043.3
4460.03
4371.83
4171.8
3859.53
3609.43
3375.87
3285.27
3034.43
2868.63
2749.43
2532.3
2357.57
2185.5
2050.9
1957.1
1832.7
1712.43
1552.6
1459.1
1370.27
1315.27
1212.83
1069.6
1053.33
947.333
898.2
825.467
769
706.933
663.233
602.467
575.9
542.633
498.7
452.9
425.333
399.767
364.4
325.167
302.167
292.333
267.867
239.4
220.933
196.333
186.767
166
160.433
139.833
129.367
117.5
106.2
94.5
87.5
76.7
67.8667
62.7333
49.4667
45.8667
36.5667
30.4
25.1
19
16.7333
9851.1
9753.47
9655.87
9560.17
9464.97
9370.27
9278.47
9186.57
9095.6
9004.7
8917.73
8822.03
8740.23
8611.17
8534.8
8467.3
8336.3
8154.97
7980.5
7839.37
7798.93
7462.3
7457.9
7300.2
7005.67
6623.47
6224.27
6228.47
5819.43
5056.83
5079.6
4480.57
4749.23
4103.33
3837
3640.13
3625.17
3332.13
3070.03
2817.27
2688.53
2572.93
2355.03
2243.63
2099.7
1932.2
1815.07
1656.13
1578.47
1496.7
1343.43
1288.03
1194.93
1125.73
1038.93
960.533
896.033
804.067
771.333
740.933
657.667
612.033
578
529.733
487.367
450.767
410.233
387.533
365.067
329
308.5
288.9
276.367
249.633
229.233
206.367
186.433
171.533
153.667
145.867
134.633
118.233
109.333
96.4
88.5667
76.3
68.9667
58.1667
53.6667
47.9
36.1333
33.5
23.8667
19.8333
15.6333
9851.13
9752.93
9656.73
9560.5
9465
9372.37
9277.4
9187.03
9094.1
9004.83
8915.83
8829.23
8740.67
8570.5
8520.67
8423.43
8399.97
8146.83
8108.4
7826.13
7762.77
7649.73
7307.87
7389.57
6820.5
6221.8
6422
5955.43
5793.97
5359.5
4904.87
4736.23
4726.4
4142.4
3888.13
3655.37
3574.83
3292.93
3026.97
2841.17
2659.5
2570.77
2341.63
2264.7
2026.07
1947.47
1809.43
1673.43
1579.5
1504.23
1372.73
1247.13
1204.9
1109.77
1031.57
980.4
898.967
856.267
772.3
721.2
667
612.133
578.667
542.833
505.733
447.7
434.6
407.133
373.767
330.533
296
291.367
275.133
245.5
232.867
215.067
177.633
169.167
155.033
146.933
130.3
117.867
101.833
95.8667
85.7667
76.3667
70.9
63
53.5
44.6667
38.6667
31.8
25
19.4
16.7333
9851.3
9752.9
9655.27
9560.7
9465.37
9371.1
9279
9185.67
9094.1
9004.9
8917.53
8826.1
8718.87
8655.97
8570.17
8359.37
8288.13
8094.87
8046.6
7751.67
7876.13
7513
7585.73
7168
6913
6625.07
6146.83
5940.97
5902.33
5246.1
5074.53
4940.17
4402.83
4188.3
4148.03
3876.5
3522.73
3254.17
3164.03
2920.2
2668.13
2592.67
2411.07
2227
2103.67
1997.43
1857.57
1711.83
1637.77
1488.13
1360.83
1334.77
1178.2
1135.23
1080.53
966.8
909.767
842.767
774.233
697.733
672.1
624.233
577.867
556.7
503.967
457.967
421.867
389.067
364.133
340.067
316.9
290.6
271.6
240.467
223.533
209.333
188.033
172.033
159
149.8
134.533
115.667
102.767
98.1333
83.1667
81.4667
67.5333
58.3
53.6333
47
36.3
31.9333
27.6667
19.6333
15.1667
9851.2
9753.1
9656.2
9559.43
9465.4
9371.27
9279.03
9184.77
9095.43
9004.87
8916.47
8827.23
8701.57
8613.1
8572.23
8438.6
8400.67
8258.53
8122.03
7831.6
7699.47
7207.4
7395.8
7144.57
6946.43
6507.1
6627.87
6278.13
5927.6
5007.1
4917.57
5140.2
4627.47
4069.17
3957.27
3672.83
3584.37
3330.63
3006.43
3171.8
2744.47
2624.8
2393.23
2226.1
2091.47
1956.3
1825.43
1778.27
1624.37
1528.23
1388.77
1318.2
1196.53
1116.6
1065.83
969.6
895.733
841.9
778.967
720.467
689.433
639.833
600.567
533.5
491.967
480.533
433.333
406.033
364.7
347.067
316.667
296.667
263.133
246.233
231
209.033
195.733
174.933
162.733
147.7
133.067
113.367
109.1
97.5
87.8
80.3333
66.5667
59.9667
53.3667
44.5333
39.6333
33.0667
23.5
21.1333
15.1333
9851.03
9752.37
9655.67
9559.97
9464.43
9371.53
9276.8
9186.03
9094.43
8972.7
8915.73
8795.4
8739.63
8568.97
8486.93
8278.07
8364.57
8162.03
8009
7986.87
7938.87
7379.03
7496.2
6926.17
6617.2
6558.63
6029
6064.6
5630.67
5491.97
5176.13
4846.93
4748.93
4159.9
4015.7
3639.87
3454.5
3448.03
3100.53
2955.2
2688.73
2609.47
2386.5
2266.3
2093.3
1988.17
1852.27
1751.7
1598.7
1513.4
1412.63
1300.37
1208.27
1131.1
1063.2
1008.13
872.433
873.133
783.433
744
668.233
637.6
589.567
524.2
501.5
473.567
427.833
410.167
367.233
346.767
310.933
298.3
261.433
254.033
225.767
209.267
198.233
177.567
157.633
146.567
131.067
126.3
106.167
94.3333
92.9333
79.1333
69.0667
59.7
52.2333
43.4333
36.9
32.2
25.5667
18.5667
15.0667
9851.23
9753.1
9656.37
9558.9
9464.9
9371
9276.7
9185.13
9093.93
9006.53
8917.9
8828.7
8701.43
8656.2
8528.63
8429.47
8234.73
8197.77
8113.4
7970.5
7831.87
7427.77
7440.27
7303.97
6976.1
6920.1
6443.17
6308.77
6005.17
5633
5026.27
5046.5
4621.37
4183.6
4165
3780.5
3612.57
3361.2
3242.97
2974.17
2770.1
2543.4
2416.33
2268.97
2180.47
1986.77
1851.43
1725
1626.27
1534.33
1375.67
1316.83
1266.07
1139.27
1064.93
957.767
909.4
867.533
792.733
735.567
682.9
639.033
583.067
549.967
509
468.5
426.733
399.133
378
334.833
319.6
300.267
275.933
242.567
225.967
208.8
187.167
177.3
152.167
151.1
132.767
125.6
104.167
93.8667
87.1667
79.7667
66.7
58.7
54.8667
45.1333
38.4
32.8333
25.9667
19.7333
14.3333
9851.1
9753.27
9656.57
9560.1
9466.43
9372.07
9278.33
9184.93
9095.73
9006.63
8879.3
8827.23
8740.8
8595.1
8570.93
8441.57
8269.87
8197.17
7972.63
8010.4
7688.77
7464
7575.57
7198.07
6905.47
6598.67
6113.6
6311.73
5634.43
5516.57
4852.17
5148.77
4797.27
4143.07
3980.53
3728.93
3600.93
3289.53
3276.77
2903.83
2732
2578.5
2459.97
2252.63
2115.33
2027.73
1889.53
1700.87
1668.23
1504.03
1426.43
1292.07
1236.53
1112.2
1068.37
979.467
900.467
824.7
807.533
734.833
705.3
616.133
593.967
531.867
506.7
468.433
424.7
398.533
374.933
342.567
319.767
282.467
269.3
252.933
228.1
214.167
194.067
168.2
161
146.267
134.233
122.533
111.233
94.9
85.2
78.5
71
58.3333
52.6
44.2667
39
33.4
25.8333
20.1667
15.1333
9851.33
9753.07
9655.8
9559.77
9465.7
9370.27
9275.83
9186.1
9095.87
9004.73
8916.4
8825.33
8700.6
8529.53
8568.87
8442.8
8256.9
8165.77
8078.23
8004.1
7753
7678.33
7350.53
7276.43
6902.47
6840.8
6040.07
6140.37
5717.17
5617.1
5330.13
4939.03
4558.97
4474.23
3952.5
3724.17
3707.87
3258.27
3104.63
3017.2
2765.17
2690.63
2438.3
2244.07
2161.63
2030.53
1846.4
1733.37
1656.03
1494.7
1441.9
1331.13
1227.77
1141.7
1047.57
964.933
919.7
856.867
789.533
736.5
689.8
630.033
584.867
540.033
512.5
460.167
446.2
402.567
370.9
347.467
316.167
295.7
263.533
241.333
224.833
202.767
197.433
174.433
159.1
154.767
137.1
121.5
111.4
97.8
86.2
78.6667
70.8667
62.3
52.4
47.6667
38.5
29.5667
25.7667
21.3667
14.3
9851.23
9752.8
9656.6
9560.63
9464.9
9371.1
9278.43
9187.17
9095.33
9004.43
8914.87
8783.17
8739.8
8561.83
8504
8373.83
8195.23
8057
7870.43
7820.6
7927.7
7429.8
7526.2
7170.2
6813.37
6944.33
6277.2
6076.97
5859.5
5460.27
4939.07
5125.03
4660.77
4323.9
4166.27
3917.87
3549.5
3261.13
3099.43
2949.07
2708.07
2561.6
2489.73
2307.6
2160.53
2001.93
1900.4
1769.57
1680.77
1537.3
1431.2
1304.27
1266.17
1158.77
1048.33
983.5
945.267
873.2
822.767
760.533
668.4
648.3
569.433
551.967
508.033
463.7
452.967
406.2
374.533
338.367
313.833
296.567
262.033
245.967
232.067
211.8
190.767
179.333
171.667
149.233
134.233
119.567
111.867
101.267
88
76.0667
70.5333
61.6333
55.8667
44.0667
38.4
31.7
27.1667
20.9
16.7333
9851
9753.33
9656.27
9559.77
9465.33
9370.8
9277.67
9188.3
9095.07
9005.9
8889.63
8786
8694.33
8655.47
8520.13
8322.23
8244.67
8314.8
8077.9
7979.33
7900.33
7476.3
7061.13
6963.67
7027.7
6598
6415.8
5879.9
5773
5273.1
5269.8
4777.3
4714
4130.07
3716.1
3692.2
3496
3453.8
3127.07
2890.53
2814.1
2592.6
2465.37
2359.03
2175.87
2022.63
1852.97
1784.1
1646.5
1524.4
1456.07
1339.47
1241.67
1117.23
1047.6
979.067
937.467
852
825.9
752.067
687.767
629.167
568.367
549.8
503.8
466.467
438.767
411.6
371.233
345
313.767
298.367
277.067
248.933
231
210.133
193.7
178.133
161.5
149.633
133
118.733
108.967
99.2333
89.5333
83.3333
70
61.2667
55.9333
42.0667
38.2667
32.4
27
20.9
16.0667
9851.23
9753.4
9656.03
9559.97
9464.8
9369.6
9279
9187.43
9093.67
9005.73
8916.33
8793.33
8647.87
8571.67
8482.33
8488.97
8297.47
8165.63
8176.2
7899.77
7816.03
7423.9
7039.93
7028.87
6843.53
6830.2
6609.8
5927.33
5646
5892.87
5237.27
4909.7
4750.57
4457.17
4066.03
4023.17
3429.97
3408.83
3247.77
3019.53
2880.5
2575.97
2471.83
2358.53
2166.53
2005.7
1878.8
1769.4
1656.1
1524.5
1443.73
1343.67
1250.6
1144.5
1081.67
1013.47
971.567
866.733
780.567
753.5
722.267
628.5
594.833
548.733
502.633
491.333
445.567
393.067
380.9
338.467
320.6
299.267
276.933
246.2
225.333
212.833
196.433
171.6
158.433
145.367
134.633
120.267
113.8
102.533
88.2667
80.2333
67.7
59.6333
55.2333
45.5667
40.3667
32.6333
26.8
20.6
14.7333
9850.9
9753.07
9655.73
9559.73
9465.83
9370.87
9278.17
9187.37
9096.47
9005
8914.47
8825.4
8739.2
8655.9
8522.73
8374.97
8312.9
8211.37
8139.2
7858.17
7785.57
7714.57
7470.53
7412.87
6876.07
6321.23
6472.47
6169.27
5909.73
6059.03
4874.33
4683.33
5035.03
4312.5
4104.8
4005.07
3533.47
3356.8
3086.23
2982.33
2904.83
2609.63
2427.93
2287.13
2143.43
2007.7
1887.97
1799.13
1652.73
1538.53
1407.33
1341.8
1260.5
1142.23
1087.4
1049.67
923
862.333
798.967
761.733
714.067
656.4
592.267
562
502.767
484.367
456.433
399.967
384.767
353.033
317.8
314.367
278.967
252.167
222.3
216.2
191.767
171.1
158.967
145.6
134.1
128.4
111.433
100.833
88.4667
76.5
69.6333
59.3333
53.2
47.4667
38.2
31.9333
27.7333
21.3333
14.9333
9851.47
9752.93
9656.47
9559.23
9464.53
9369.83
9277.8
9185.07
9093.97
9004.37
8888
8827.63
8741
8606.7
8441.17
8449.47
8295
8206.07
7999.97
7997.83
7809.07
7606.63
7216.23
7190.53
6834.93
6601.6
6657.83
6125.97
5561.6
5398.47
5371.23
4686.3
4998.9
4525.3
3948.63
3884.87
3555.4
3574.2
3240.23
3035.47
2803.1
2655.93
2490.97
2277.87
2158.6
1966.33
1914.07
1770.5
1669.73
1537.43
1436.23
1352.1
1264.03
1149.27
1059.83
994.367
925.233
838.9
810.233
758.8
702.6
661
616.4
560.133
519.133
473.833
436.233
409.433
388.533
354.033
321.6
296.333
273.6
245.033
241.6
221.4
194.267
175.5
160.567
150.7
127.267
120.7
106.633
96.2
91.1
77.9667
75.3333
61.6
52.0333
47.5333
36.2667
33.2333
27.5667
21.4
16
9851.1
9753.37
9656.17
9560.1
9464.73
9372.27
9277.5
9184.07
9096.07
9005.77
8890.5
8828.73
8738.6
8613.43
8527.53
8482
8299.4
8226.27
8176.53
7854.03
8013.2
7734.07
7453.6
7291.57
6786.87
6414.87
6158.57
5899.27
5699.8
5190.13
5048.17
4994.13
4612.73
4319.07
4258.4
3759.83
3856.53
3604.77
3331.23
2911.33
2833.6
2645.43
2443.33
2335.87
2191.13
2043.37
1872.63
1803.9
1649.2
1523.6
1467.07
1343.63
1252.4
1184.1
1071.4
997.2
932.833
883.033
798.9
761.567
690.667
641.067
590.233
551.7
507.1
475.933
433.9
418.233
376.5
336.367
322.3
290.067
282.633
250.233
233
210.4
190.467
177
169.4
148.233
134.133
123.533
105.133
95.8333
87.4333
78.3
72.5
60.2333
52.4667
44.7333
38.9667
32.6667
26.4
21
14.3
9851.27
9753.5
9656.67
9559.97
9464.63
9371.5
9277.9
9184.97
9093.27
9004.87
8915.6
8825.97
8740.23
8605.8
8568.6
8391.7
8399.77
8220.77
8132.2
7939.9
7789.2
7600.6
7628.4
7373.63
7201.73
6943.8
6406.8
6128.47
6088.4
5520.97
5146.73
5230.87
4592.63
4358.07
4204.83
3965.77
3543.17
3299.43
3122.4
2950.43
2813.8
2601.83
2534.57
2290.07
2155.37
2061.97
1903.43
1780.33
1598.07
1567.23
1425.93
1381.43
1245.67
1157.63
1114.53
1007.2
929.5
857.1
822.967
755.1
718.767
644.867
613.1
547
511.533
482.833
452.133
416.433
371.5
351.5
311.833
291.767
267.9
245
237.2
215.3
195.433
178.533
163.433
148.3
135.7
120.667
110.633
99.0333
87.7333
81.4667
67.7667
62.3667
52.2333
45.6333
39.1667
33.7
27.7
20.3333
14.9
9851.03
9753.47
9655.77
9558.83
9464.4
9371.73
9278.47
9185.6
9096.33
9006.3
8915.47
8828.1
8740.1
8601.8
8517.03
8293.37
8302.53
8118.23
8034.7
8030.33
7836.87
7822.07
7008.57
7186.53
7147.93
6626
6502.6
6377.63
6425.37
5663.47
5256.33
5191.93
4809.2
4358.73
4180
3657.03
3642.37
3391.4
3318.13
2937.63
2858.37
2610.93
2441.53
2336.43
2126.63
2059.8
1943.33
1769.03
1696.43
1592.73
1431.73
1342.13
1235.07
1140.03
1092.63
1009.7
918.533
874.033
773.8
766.267
689.167
639.9
596.067
549.9
534.4
482.033
443.867
404
367.1
359
327.433
308.8
278.5
250.4
225.9
209.6
203.1
169.1
166.333
150.067
132.7
122.233
112.733
102.2
87.4333
80.9667
73.3333
60.1667
52.8333
43.1667
37.8333
31.3333
25.2333
20.7
15.7667
9851.07
9753.07
9655.97
9560.53
9465.13
9370.7
9277.13
9185.27
9095
9004.03
8917.1
8778.8
8700.7
8655.63
8496.8
8302.1
8324.9
8321.23
8037.63
7784.9
7837.8
7689
7375.03
7101.4
7070
6961.2
6589.5
6285.23
6147.23
5275.57
5087.9
4734.3
4503.1
4221.27
4421.3
3726.03
3451.2
3183.37
3149.9
2922.77
2803.37
2665.53
2573.77
2304.7
2238.83
2072.9
1935.97
1805.2
1695
1583.9
1429.53
1371.67
1263.37
1142.3
1099.67
1021.07
946.1
880.9
827.933
770.467
707.567
628
604.567
549.733
510.967
473.9
450.733
405.367
390.433
361.867
331.267
292.333
277.2
256.033
234.367
219.567
203.067
182.4
158.133
149.9
134.3
120
108.867
98.4667
89.3333
76.7
71.8
61.1667
55.7
46.6333
37
34
27.7
19.6333
14.5667
9850.97
9753.03
9655.73
9560.47
9464.37
9371.1
9277
9187.77
9095.07
9006.73
8916.27
8830.53
8694.3
8652.67
8566.9
8483.17
8234.83
8107.07
7919.97
7817.3
7624.6
7720.47
7596.57
6833.57
6797.57
6490.23
6877.47
6066.83
6022.83
5376.3
5159.2
4508.6
4813.37
4232.73
4275.73
3664.67
3629.53
3457.73
3147.67
2946.27
2781
2689.13
2458.93
2333.67
2181.77
2105.07
1873.4
1791.9
1680.3
1577.77
1457
1342.77
1270.4
1170.87
1102.4
1030
928.767
856.933
837
739.6
698.633
665.067
602.633
560.233
522.767
488.467
444.133
406.567
394.3
356.133
321.267
296.5
283.067
254.2
232.333
213
201.367
179.567
166.233
150.667
138.033
125.2
112.833
103.2
90.2667
74.8333
74.7333
64.4
55.9
43.7667
38.9667
30.7
28.3
21.3
16.1
9851.13
9753.33
9656.2
9559.37
9465.03
9372.37
9278.63
9185.97
9095.13
9004.97
8915.73
8791.37
8699.07
8658.27
8570.57
8336.03
8297
8227.97
8133.93
7920.53
7805.5
7558.4
7352.23
7030.8
6863.63
6992.83
6350.23
5785.17
5818.97
5603.83
5279.77
5008.27
4511.57
4545.03
4027.13
3735.27
3795.3
3442.43
3204
2927.67
2871.27
2629
2521.7
2314.83
2154.53
2072.33
1936.93
1787.43
1679.4
1596.47
1485.53
1372.8
1288.07
1195.53
1120.2
1035.77
949.567
866.533
805.033
737.7
688.8
650.067
611.767
560.967
510.433
484.633
467.367
392.067
375.9
359.633
323.4
290.733
281.5
251.867
233.567
210.133
201.533
184.567
169.7
157.2
135.833
122.7
113.5
102.833
91.4
79.4333
69.2
63.6333
53.8
46.2667
42.0333
32.9
25.3333
20.6667
14.9
9851.4
9753.33
9656.83
9560.33
9464.97
9371.23
9279.43
9184.8
9097.07
9006.5
8916.07
8829.97
8616.6
8649.8
8477.3
8485.43
8279.73
8181.33
8113.1
8036.1
7722.7
7733.6
7424.53
6942.03
7043.53
6833.73
6164.5
6037.23
5779.8
5876.07
5280.43
5142.73
4757.13
4619.33
3942.13
3616.5
3616.1
3342.97
3242.7
2997.17
2803.83
2688.67
2434.73
2321.4
2185.53
2041.83
1972.03
1785.13
1701.43
1597.27
1449.9
1375.9
1248
1195.53
1117
1029.23
945.3
889.433
793
734.633
714.7
654.3
597.967
555.8
505.767
471.733
439
421
376.8
351.6
325.867
296.3
269.8
247.067
232.467
211.833
199.133
174.233
160.633
147.233
128.667
129
111.633
100.967
89.5667
79.1
72.8667
62.9
53.4333
47.6
38.2667
31.4333
28.3333
21.1
16.7333
9850.93
9752.97
9656.1
9559.13
9465.23
9371.93
9277.03
9184.43
9095.73
9006.53
8916.93
8799.7
8741.8
8654.93
8494.37
8334.03
8263.97
8178.27
8125.93
7919.07
7622.3
7710.93
7811.17
7242.07
7075.93
6749.97
6097.63
6221
5735.57
5974.03
5416.37
5270.87
4697.73
4397.2
4041.63
3985.83
3710
3345.9
3218.4
2955.87
2799.7
2694.3
2494.03
2386.63
2164.43
2010.87
1941.23
1806.53
1652.13
1605.93
1429.57
1383.9
1291.9
1172.4
1109.93
1011.63
974.967
890.167
821.767
758.233
704.567
658.167
587.3
546.667
525.433
474.2
437.633
410.967
382.2
356.133
318.533
299.033
269.667
252.967
232.367
212.967
186.967
184.6
163
148.033
138.067
124
110.6
103.067
93.0333
81.5667
73.1
62.1667
50.1667
46.5333
39.7667
31.9667
25.8333
20.6
15.8667
9851.17
9752.97
9655.87
9560.53
9465.23
9372.37
9277.1
9186.33
9096.57
9005.63
8905.87
8828.8
8741.67
8594.87
8524.73
8385.43
8389.07
8110.23
8029.07
8033.33
7707
7503.37
7206.33
7400
7119.17
6595.63
6511.2
5957.07
5732.17
5475.4
5226.7
4844.37
4653.97
4474.7
4271.83
4030.67
3636.67
3409.9
3155.53
3008.43
2891.07
2660.5
2444.07
2321.07
2184.23
2049.5
1896.3
1804.1
1606.67
1575.83
1439.7
1392.27
1259.63
1184.07
1102.3
992.733
944.5
882.3
837.967
731.467
690.067
663.5
617.433
544.7
518.533
470.533
430.8
405.167
380.567
343.967
322.767
294.9
280.1
245.967
231.5
211.433
190.033
178.1
164.233
149.3
134.133
124.333
113.467
102.667
88.7333
74.1333
68.8333
63.4
55.8
46.7333
40.3
33.6
26.4333
20.8
15.6
9851.13
9753.27
9655.87
9559.67
9465.1
9371.03
9278.47
9185.63
9095.7
9005.3
8914.37
8827.2
8629.07
8655.3
8516.23
8432.9
8209.4
8233.5
7948.43
7860.17
7711.4
7714.03
7557.03
7350.33
7235.4
6707.13
6596.5
5900.57
5888.27
5852.7
5053.1
4916.43
4653.23
4264.6
4307.3
3862.5
3615
3461.8
3131.43
2898.1
2849.5
2812.73
2559.37
2365.7
2163.7
2033.77
1905.63
1776.43
1664.67
1578.2
1467.63
1326.63
1259.73
1203.07
1091.73
1050.97
930.067
855.9
843.467
764.6
699.633
649.067
587.067
558.467
528.233
479.233
460.267
423.9
372.867
351.267
332.4
304.633
275.233
249.033
234.233
215.433
201.1
181.267
160.533
148.467
133.667
127.433
110.267
102.833
86.1
81.4
68.0667
61.9333
56.7667
46.5667
41
32.2333
25.9667
19.9667
14.9
9850.97
9753.7
9656.4
9559.3
9463.83
9372.37
9278.77
9185.5
9095.77
9005.3
8918.27
8825.77
8692.53
8625.2
8567.63
8454.93
8308.8
8149.63
8237.43
7890.53
7839.93
7712.13
7271.13
7198.07
6947.6
6677.1
6498.83
6554.53
5978.1
5774.57
5224.1
4842.03
4728.6
4132.27
4132.57
3909.2
3597.23
3345.3
3166.83
2993.93
2835.3
2674.23
2496.37
2328.97
2248.43
2027.6
1919.63
1774.7
1736.57
1565.5
1422.13
1302.6
1268.37
1170.83
1121.07
1012.1
917.033
877.333
827.667
767.333
704.233
637.5
588.8
565.7
516.4
482.233
438.7
416.833
389.833
350.033
315
299.367
271.933
261.033
236.133
217
201.9
175.567
163.833
153.167
140.5
121.433
108.767
102.367
90.6
79.7333
73.2667
60.2333
56.6
47.2
39.1
35.5333
26.8667
22.6667
15.4
9851.17
9752.9
9656.37
9560.43
9465.43
9369.87
9277.87
9185.23
9095.23
9005.87
8914.07
8826
8744.93
8657.33
8572.9
8485.73
8400.07
8130.47
8005.37
7901.77
7703.2
7452.53
7283.63
7347.9
7013.03
7066.87
6414.3
6014.13
5705
5381.9
5286.43
4693.9
4538.8
4665.7
4278.33
3800
3644.6
3387.33
3114.17
3060.67
2780.73
2680.77
2555.5
2339.73
2223.47
2083.47
1905.97
1793.73
1732.43
1580.57
1471.3
1331.6
1276.73
1181.3
1080.1
1038.43
920.767
888.3
799.833
759.867
674.2
669.233
619.6
569.367
514.4
479.1
448.567
432.2
390.7
346.967
336.133
301.933
277.233
247.567
233.733
223.2
199.467
178.567
165.467
143.6
130.133
126.767
117.567
100.433
87.6
81.1667
70
60.4333
52.5667
47.1
38.7667
32.4333
27.4
19.5333
16.9667
9850.93
9753.27
9656.07
9561.03
9465.47
9371.5
9278.87
9186.47
9094.7
9003.83
8918
8827.87
8742.63
8657.3
8518.97
8480.33
8352.93
8208.63
8113.97
7955.17
7604.57
7732.2
7489.8
7411.3
7172.63
6805.23
6381.87
6483.67
6256.9
5727.7
5288.03
5014.53
4646.53
4442.27
4182.53
3733.33
3588.33
3513.53
3189.37
2963.83
2830.27
2658.6
2505.1
2304.63
2133.2
2091.87
1955.67
1795.4
1612.57
1548.33
1457.03
1381.3
1302.1
1179.37
1125.6
1009.2
951.7
862.967
816.633
747.567
717.133
660.433
615.767
555.867
515.567
475.167
466.167
415.067
388.167
362.033
321.233
309.2
275.733
256.233
231.367
225.3
199.833
188.367
161.233
149.833
139.767
124.467
116.433
103.8
85.6333
82.1
70.8
61.3333
52.6333
44.9333
37.5
33.4333
25.5667
19.7667
16.3333
9851.27
9752.93
9655.5
9559.73
9465.4
9371
9276.5
9160.17
9094.9
9006.6
8913.77
8790.27
8742.23
8617.6
8486.4
8485
8397.2
8261.93
7970.17
8096.1
7787.67
7800.03
7221.83
7034.87
7191.77
6875.57
6217.33
6602
5915.4
5120.1
5306.93
4854.87
4871.17
4352
4253.77
3818.17
3663.43
3406.13
3147.17
2930.77
2864.3
2643.77
2528.9
2310.37
2182.63
2038.73
1930.6
1824.9
1708.5
1583
1434.77
1386.67
1279.77
1171.87
1114.47
997.433
938.433
902.7
800.967
738.167
713.7
654.033
608.033
541.433
524.033
478.3
461.6
404.833
375.833
348.433
327.833
303.433
284.733
249.333
235.567
225.567
202.033
181.6
164.933
146.333
139.233
126.733
108.2
98.2
90.4
79.1
70.1
64.5333
55.8
46.1
40.2333
31.5
26.1667
20.9
14.1
9851.3
9753.37
9655.27
9559.73
9464.83
9371.37
9277.83
9186.4
9095.8
9005.53
8916.6
8827.1
8741.1
8655.23
8476.23
8374.57
8297.4
8054.03
7945.07
8043.73
7774.63
7739.6
7502.57
7008.83
7063.83
6069.67
6522.1
6040.37
6042.7
5312.5
5018.83
5335.5
4655.33
4331.77
4139.87
3987.63
3662.83
3638.83
3166.87
2883.13
2823.37
2626.87
2507.7
2368.3
2272.1
2056.93
1995.2
1759.57
1694.9
1585.3
1457.43
1386.07
1255.3
1193.73
1059.87
1014.7
957.933
867.933
831.7
736.5
719.833
632.167
576.567
576.4
517.233
480.8
459.567
419.733
367.133
350.1
327.633
301.433
287.033
252.833
233.5
220.3
191.4
175.267
167.433
143.167
136.5
122.867
112.367
97.9
91.0333
76.6333
71.0333
64.1333
52.6333
47.9333
40.0333
32.3
25.6
21.9
16.8
9850.97
9753.17
9655.83
9560.2
9464.37
9371.33
9277.27
9186.97
9094.1
9006.47
8914.6
8829.97
8660.63
8602.57
8569.1
8337.93
8304.67
8319.83
8067.17
8015.2
7817.7
7777.87
7563.7
7277.37
7302.97
6366.7
6576.6
6399.53
5762.07
5543.67
5361.67
4839.2
4475.67
4273.83
3982.53
3681.83
3570.13
3370.27
3137.4
3050.33
2824.4
2663.6
2563.53
2402.17
2202.23
2060.7
1942.7
1805.77
1670.27
1626
1453.77
1385.97
1262
1183.13
1096.43
1040.13
954.8
866.033
821.9
752.667
723.067
656.133
631.433
547.067
528
477.4
457.033
415.267
386.933
354.7
341.5
308.6
272.9
251.3
238.6
204.467
204.533
184.667
160.3
149.9
136.467
124.733
110.1
98.5
90.8333
79.1667
72.6333
62
54.5
47.6
40.1667
31.8
26.6333
20.7
16.2
9851.07
9752.7
9655.5
9559.53
9465.07
9371.33
9277.97
9186.73
9095.3
9003.13
8914.03
8793.97
8738.73
8568.57
8568.57
8403.6
8260.03
8317.2
8057.83
7867.27
7832
7635.17
7486.13
7460.6
6641.43
6622.77
6607.53
6265.63
6068.37
5641.97
5438.33
5116.33
4637.57
4271.27
3830.83
3918.47
3585.47
3357.57
3316.4
2970.2
2805.73
2611.83
2532.53
2424.6
2198.1
2078.27
1966.5
1778.87
1723.97
1605.57
1491.67
1385.2
1271.67
1192.43
1104.63
1031.57
945.167
884.4
812.767
763.733
714.233
655.9
604.7
548.767
525
483.1
447.633
417.4
381.033
362.533
328.233
303.1
282.067
259.467
235.6
210.433
198.333
181.433
164.333
153.433
136.533
121.267
111.9
98.5
95.4667
80.2333
70.5667
59.7667
54.2333
47.1
38.5
35.1333
26.6
20.6333
15.8
9851.33
9752.8
9655.47
9561.13
9465.47
9370.67
9278.23
9183.67
9096.87
9004.8
8913.97
8742.8
8741.1
8650
8569.1
8484.7
8349.33
8224.73
8027.3
7750.33
7971.13
7496.67
7099.73
7273.9
7322.6
6529.17
6852.37
6385.6
6152.6
5664.3
5449.73
5146.07
4461.7
4380.4
3919.3
3783.77
3606.63
3333.43
3351.53
2994.57
2823.23
2673.87
2535.43
2335.77
2204.53
1969.73
1979.93
1815.67
1743.9
1555.77
1489.67
1379.07
1245.57
1162.8
1112.63
1028
922.267
895.133
838.3
770.833
725.733
663.033
608.1
578.133
517.533
496.1
444.6
438.2
378.7
350.467
325.167
289.867
276.733
250.967
231.333
217.433
200.5
178.333
164.433
147.3
137.6
124.967
115.933
102.6
87.8333
84.9
71.1333
63.6333
53.6333
46.2333
40.5
32.0333
25.5667
22.1
15.6333
9851.2
9752.63
9656.37
9560.57
9464.23
9371.3
9277.97
9186.3
9094
9005.5
8914.73
8828.13
8699.47
8615.63
8521.53
8440.77
8335.17
8118.6
8009.4
8081.77
7777.73
7615.03
7346.17
7186.7
6783.33
6811.6
6559.67
5856.8
5938.87
5368.23
5288.17
4876.77
4728
4621.17
4169.37
4091.93
3582.13
3430.3
3188.4
3003.23
2856.3
2722.97
2427.6
2292.93
2201.67
2029.07
1953.17
1837.27
1692.07
1534.93
1493.97
1361.7
1246.07
1177.87
1111.1
992.6
938.9
884.233
815
775.367
738.467
680.8
618.1
561.733
514.933
504.2
449.767
404.533
384.567
356.1
328.867
294.9
272.5
251.967
232
219.633
196.267
175.9
158.633
148.6
139.067
125.667
110.7
102.767
89.2667
85.9
74.2667
62.1
53.8
47.0667
37.8333
31.7333
26.4
21.3
15.7333
9850.77
9753.3
9655.9
9560.03
9465.13
9371.17
9278.13
9186.1
9094.57
9003.03
8914.97
8829.27
8741.93
8647.43
8465.3
8438.53
8304.4
8204.23
8096.53
8064.9
7680.57
7511.83
7442.7
7283.27
6715.17
6792.57
6000.83
6152.77
5571.43
5805.6
5571.17
4816
5153.07
4578.8
3918.9
4123.07
3744.47
3397.77
3246.17
2915.4
2848.13
2650.63
2547.3
2310.37
2234.9
2052.03
1921.93
1840.9
1674.73
1540.13
1417.6
1373.2
1249.77
1173.07
1081.47
1022.03
970
891
841.2
747.633
709.233
660.667
619.5
557.1
528.067
503.2
452.967
399.867
381.633
361.6
339.167
301.7
273.9
250.867
241.167
211.633
193.067
178.733
171.367
148.567
139.5
128.233
112.033
103.033
89.4
78.8
68.8
65.0333
56.1
48
40.8
34.2
26.3333
21.3667
16.1333
9850.93
9753.17
9656.53
9559.5
9464.97
9370
9278.47
9188.17
9094.7
9002.97
8877.6
8828.83
8660.03
8655.93
8518.83
8379.6
8299.67
8031.57
7966.57
7995.7
7806.17
7535.47
7224.5
7192.4
6925.27
6782.63
6423.2
6337.8
5806.07
6091.37
4964.27
5028.13
4695.9
4691.07
4042.1
3813.47
3669.7
3412.97
3201.3
2972.73
2841.83
2643.13
2499.1
2411.77
2149.27
2065.07
1933.63
1777.8
1686.73
1579.93
1441.87
1404.6
1276.33
1187.03
1092.6
1038.8
933.7
883.1
836.467
767.567
719.967
681.267
622.267
567.067
528.433
483.733
431.333
421.2
378.7
357.1
327.567
298.667
272.767
253.767
230.6
217.6
186.667
185.4
170.2
158.233
136.1
124.7
113.5
103.3
90.1
78.2
68.2
61.4
57.0333
46.0667
40.9
33.0333
25.2
21.2667
14.7667
9850.97
9752.87
9656.77
9560.3
9464.4
9370.37
9277.63
9185.57
9095.2
9007.5
8872.23
8803.1
8739.73
8657.17
8523.17
8448.57
8400.37
8276.37
8145.37
7789.43
7757.9
7466.4
7470.23
7194.83
6959.23
7008.2
6495.2
5907.17
5947.27
5851.37
5176.93
5146.4
4402
4301.13
4067.23
3851.87
3652.47
3520.63
3202.33
3143.5
2887.1
2698.27
2578.73
2360.67
2190.07
2034.1
1932.53
1772.6
1699.03
1548.7
1469.3
1394
1276.27
1173.87
1116.13
1041.07
948.633
876.767
818.067
774.6
715.4
681.8
605.067
561.533
536.433
473.6
454.633
425.833
384.233
356.333
331.2
303.7
275.667
256.467
224.867
220.1
202.467
192.067
166.3
147.867
140.6
129.067
110.733
100.467
85.9667
80.9667
66.6
60.5333
52.1667
46.6
39.5
31.7333
26.6
20.9333
16.9667
9850.97
9753.23
9655.3
9560.3
9465.13
9370.1
9278.17
9187.13
9097.1
9003.73
8881.87
8830
8741.83
8571.83
8514.5
8486.7
8221.37
8153.13
8113.73
7943.3
7680.7
7658.47
7233.13
7225.67
6789.43
6810.3
6574.57
6799.8
6008.5
5698.4
5227.83
5287.03
4572.53
4271.87
4119.03
3757.37
3523.73
3377.67
3088.37
3072.23
2849.7
2612.1
2584.27
2438.23
2270
2029.17
1940.43
1821.77
1662.33
1571.43
1448.3
1385.73
1245.53
1180.43
1110.6
1016.37
930.867
898.9
824.733
772.967
699.2
669.133
614.933
567.467
535.967
498.3
456.4
431.667
380.7
355
328.8
301.467
272.5
251.033
234.133
211.633
200.467
176.033
162.667
147.533
135.633
120.233
117.267
100.067
86.3333
82.2
71.2667
63.6333
53.8667
45.7667
40.2333
31.6667
25.9
22.2333
16.1
9850.93
9752.67
9655.97
9560.77
9466.07
9372.47
9278.83
9185.2
9096.57
9004.37
8915.03
8828.43
8740.9
8654.67
8536.87
8410.47
8351.23
8154.57
8224.6
7859.67
7562.8
7677.37
7539.1
7262.6
7028.33
6308.13
6691.63
5925.8
6051.53
5504.53
4954.73
5196.83
4635.93
4354.33
4226.5
3773.97
3535.37
3272.8
3205.4
3011.03
2818.57
2627
2504.63
2315.1
2204.87
2070.67
1947.6
1789.97
1702.07
1590.8
1469.63
1360.67
1302.33
1196.57
1073.3
990.733
957.367
886.3
807.133
731
713
663.633
613.2
574.7
512.5
487.967
426.433
428.667
377.633
358.6
327.867
308.067
273.733
243.667
239.7
211.267
198.033
181.667
169
149.4
130.1
123.433
113.067
99.9333
92.0333
77.9667
74
60.4
53.6333
47.3667
40.1333
31.0333
26.7
21.4667
15
9851.2
9753.27
9656.23
9559.73
9465.67
9369.8
9277.13
9187.37
9094.57
9007.53
8914.73
8829.83
8687.57
8565.53
8554.77
8437.33
8300.57
8017.8
8241.23
7927.7
7810.4
7753.87
7496.83
7160.67
6854.83
6769
6597.33
6119.57
5648.1
5539.3
5695.17
5340.43
4456.47
4320.9
3981
3891.97
3624.73
3418.37
3157.83
2995.4
2838.5
2685.77
2462.93
2338.2
2228.63
2048.37
1858.23
1771.57
1664.5
1655.67
1493.37
1330.43
1257.27
1200.5
1099.33
1002.97
970.233
881.133
833.833
765.733
725.9
674.6
616.567
550.5
521.5
477.767
438.5
414.233
370.7
352.533
322.767
293.2
275.233
261.367
240.767
222.467
199
187.7
164.967
150.367
138.333
129.567
111.967
101.867
90.8
78.3667
68.8667
62.5667
56.1333
46.6
36.9333
36.3667
26.4667
21.2
16
9851.03
9753.1
9655.9
9560.03
9465.47
9370.87
9277.9
9185.6
9095.97
9003.83
8880.97
8804.4
8741.23
8656.27
8571.07
8446.5
8395.33
8204.4
7951.8
7773.07
7779.13
7656.33
7186.9
7356.13
7073.13
6729.53
6855.6
6315.97
5811.43
5755.3
5575.17
4974
4693.67
4319
4258.93
3843.17
3625.17
3418.53
3089.97
3016.33
2792.83
2594.33
2487.1
2352.63
2210.77
2082.03
1864.17
1811
1642.17
1540.97
1450.87
1347.13
1251.53
1224.07
1114.27
1032.77
954.533
889.2
831
762.733
705.533
675.433
613.367
575.333
504.433
502.867
439.633
426.167
387.667
355.4
323.733
299.9
279.267
255.533
233.5
213.3
190.233
183.833
169
150.933
147.433
125.133
110.033
102.367
89.5333
82.1
70.0667
65.3333
54.9667
47.9333
39.2667
31.3667
26.0667
20.7
16.9333
9850.9
9753.5
9656.63
9560.4
9464.8
9371.6
9278.03
9186.83
9064.7
9005.93
8914.7
8828.3
8741.5
8655.53
8451.47
8485.97
8311.17
8252.37
8125.5
7935.67
7953.97
7601.57
7548.13
7173.93
6838.37
6595.47
6601.73
6210.9
5928.1
5574.2
4978.2
4898.6
4927.13
4748.13
4128.17
4106.07
3674.6
3541.8
3237.43
2997.1
2832.2
2665.53
2541.37
2412.1
2232.13
2111.57
1888.03
1791.9
1676.47
1612.1
1453.73
1328.93
1284.27
1165.8
1067.23
1040.13
952.167
896.1
832.167
763.767
719.733
657.267
590.667
571.4
534.7
491.067
454.233
413
396.6
356.867
333.567
316.5
272.033
261.267
233.667
224.167
201.667
179.233
161.467
149.1
137.867
125.967
108.733
102.133
87.4333
80.1
73
59.3333
55.2333
46.9
38.2667
31.8
26.7667
20.8
15.8
9850.83
9753.4
9656.37
9560.1
9465.37
9371.4
9277.83
9185.47
9095.27
9006.63
8916.93
8831.6
8745
8653.27
8479.53
8352.3
8337.4
8317.43
8017.37
8038.67
7612.73
7509.7
7398.47
7341.7
7112.5
6939.43
6393.83
6431.7
5752.07
5493.67
5683
4741.8
4534.33
4362.03
4167.5
3767.23
3743.43
3526.27
3246.6
2971.13
2814.03
2656.47
2537.67
2337.37
2229.03
2081.43
1945.6
1824.03
1675.33
1592.33
1466.03
1356.63
1243.7
1210.03
1110.5
1020.93
947.833
895.4
814.867
778.667
720.067
646.633
594.2
570.1
531.733
486.833
429.333
411
373.6
339.667
330.5
306.833
284.933
247.533
229.833
211.4
193.033
186.8
162.7
151.567
134.867
123.1
108.533
102.533
87.8667
80.3333
70
62.5667
52.7333
46.8333
38
32.4667
26.1667
21.2
15.7667
9851.17
9753.47
9656.73
9560.63
9465.07
9370.47
9278.2
9184.9
9094.67
9005.53
8914.17
8826.77
8739.5
8615
8448.37
8447.57
8238.47
8260.03
8053.2
8039.23
7784.57
7716.1
7307.3
7225.03
7065.5
7016.93
6273.93
6109.07
5844.47
5535.47
5263.17
4947.53
4366.93
4499.9
4243.4
3842.13
3674.07
3519.17
3308.1
2995
2821.2
2643.37
2506.7
2335.33
2230.83
2112.6
1899.43
1784.5
1664.77
1567.53
1470
1342.9
1254.53
1157.73
1060.4
1022.47
933.6
881.933
826.567
785.1
706.6
634.3
600.3
570.167
540.433
482.933
453
408.633
387.633
353.167
343.9
304.9
272.4
257.933
228.367
208.367
198
185.367
171.133
154.867
135.233
123.3
111.1
97.9333
88.9
84.7
67.1667
63.9
53.5
46.3333
40.1
34.2333
25.7667
19.6
15.4333
9851.1
9753.63
9656.03
9560.57
9465.27
9371.07
9280.23
9186.27
9094.4
9004.83
8915.37
8828.07
8739
8654.7
8530.43
8449.9
8355.37
8267.77
8130.87
8001.5
7710.6
7725.07
7213.73
7149.07
7143.27
6922.07
6174.97
5879.33
5701.33
5873.7
5299.37
4975.03
4726.8
4377.03
4219.4
3652.53
3522.5
3508.63
3164.6
2974.03
2850.5
2580.47
2549.8
2374.57
2239.67
2121.7
1913.87
1834.1
1668.33
1607.67
1461.67
1347.93
1252.13
1189.13
1106.27
1000.2
965.7
874.433
820.367
769.5
723.033
682.467
603.767
558.5
537.233
496.8
450.1
408.233
387
358
333.133
296.367
277.9
253.133
228.6
222.9
191.833
181.8
168
152.167
140.267
123.733
110.033
102.1
90.2
83.9667
72.2
63
51.9333
47.1333
39.5333
33.6667
27.9
20.4333
16.3333
9850.93
9753.37
9656.8
9560.57
9464.07
9371.23
9279.03
9187.27
9094.5
9004.93
8915.57
8826.9
8695.93
8657.5
8525.27
8437.27
8289.43
8209.1
8088.73
7888.27
7792.07
7233.83
7509.07
7246.8
6922.27
6664.83
6192.37
6499.2
6073.33
5528.57
5487.47
5075.57
4704.1
4384.37
3998.33
3617.17
3582.2
3420.57
3288.43
2895.53
2813.97
2622.63
2458.27
2368.07
2146.03
2001.3
1971.7
1812.1
1679.37
1531.2
1463.37
1373.2
1263.6
1192.3
1094.17
1011.93
968.433
885.467
834.333
779.3
718.433
647.433
618.067
578.033
518.267
483.967
435.367
425.6
387.333
357.767
328.2
315.633
267.167
250.533
238.6
220.067
197.667
186.333
163.833
153.467
141.267
123.533
115.333
104.367
90.6333
80.4333
71.4667
60.9333
56.6
45
39.1
33.6667
27.5333
19.6
15.1
9850.83
9753.2
9657.1
9559.67
9464.1
9370.93
9277.2
9185
9094.17
9005.2
8914.77
8826.87
8742.67
8630.07
8486.13
8305.23
8350
8154.27
8174.63
7755.57
7849.47
7748.13
7340.97
7359.83
6786.73
6379.77
6595.17
6053.87
5885.27
5610.73
5511.53
4936.07
4720.07
4265.67
4110.03
3776.47
3522.77
3476.1
3192.6
3025.2
2808.43
2648.03
2455.5
2386.43
2152.27
2070.73
1925.17
1769.2
1745.33
1600.13
1471.87
1400.77
1282.87
1175.5
1094.53
1017.63
951.733
882.967
805.433
768.367
704.333
667.5
623.233
564.5
527.567
484.967
459.133
423.033
382.6
363.3
324.367
308.367
288.167
259.967
232.667
218.367
195.5
180.5
167.2
155.3
142.033
125.8
112.2
101.767
92.2
81.4667
73.6667
62.3667
55.1333
47.5667
39.9
32.6333
27.6333
20.4
15.4333
9851.17
9752.67
9655.73
9560.63
9465.33
9371.13
9277.37
9188.07
9094.23
9004.23
8916.5
8827.8
8740.43
8652.4
8524.77
8489.9
8402.73
8265.43
8062.27
7997.3
7656.03
7681
7595.73
7484.77
7183.53
7006.83
6547.3
6147.17
5795.63
5571.8
5395.5
5287.67
4675.27
4829.87
4387.2
3788.87
3641.83
3488.37
3301.53
3006.3
2845.47
2640.03
2567.93
2310.83
2198.17
2052.53
1942.87
1782.83
1675.83
1576.93
1455.03
1376.83
1286
1160.73
1096.43
1020.4
920.7
888.967
810.067
761.5
718.133
669.6
619.033
567.733
535.2
485.233
448.533
425.467
373.167
361.733
329.667
307.933
275.833
254.633
228.867
214.767
198.167
182.233
157.867
148.433
140.233
123.8
115.833
99.4
89.8667
79.8333
71.6333
64.5
56.5333
47.9333
39.1333
32.4
27.9
20.9667
16.0667
9851.13
9753.17
9656.5
9560.8
9465.03
9371.13
9278.83
9186.6
9094.77
9005.47
8911.9
8827.27
8674.67
8654.57
8481.7
8440.93
8304.87
8222.13
8237
7970.57
7590.03
7632.17
7508.37
7470.07
6741.6
6790.07
6960.43
6413.57
5578.73
5304.53
5364.57
4986.9
4893.43
4230.77
4041.7
3854.57
3456.17
3340.03
3187.9
3085.27
2867.7
2713.17
2455.53
2329.43
2251.63
2056.53
1917.53
1808.57
1658.57
1569.07
1456.63
1367.07
1282.03
1192.37
1108.17
1023.83
937.367
853.7
841.233
744.3
705.567
656.233
623.1
562.067
520.133
474.133
434.1
428.567
374.2
356.567
327.533
305
286.633
249.867
236.033
216.467
205.167
189.3
158.433
148.3
139.833
120.067
112.533
100.667
92.0667
80.8
69.6
61.0333
54.7
49.7333
39.5667
31.8333
25.2
21.9667
15.6667
9851.23
9753.07
9655.93
9560.03
9463.77
9370.93
9278.93
9187
9094.37
9006.33
8915.53
8828.3
8740.1
8562.73
8571.4
8482.63
8307.97
8323.73
8092.73
7880.03
7888.77
7678.63
7394.73
7410.43
6868.03
7001.97
6700.8
6415.5
5684.97
5691.47
5350
5022.33
4855.8
4317.23
4032.1
3848.93
3600.6
3441.83
3243.27
2979.73
2830.77
2647.6
2461.37
2308.43
2245.1
2012.6
1944.67
1797.13
1680.07
1599.83
1474.63
1376.3
1276.87
1164.07
1085.23
1005.2
932.367
876.267
839.667
770.667
701.9
652.067
610.667
558.6
522.167
484.533
453.967
409.833
387.9
368
319.833
309.333
277
265.733
231.733
206.633
195.867
182.067
169
148.433
139.367
122.333
110.7
102.833
92.2
81.9667
70.5333
62.3667
51.7333
45.9667
42.4667
32.3333
25.2667
21.3
14.5667
9850.9
9753.13
9656.27
9560.67
9464.43
9371.47
9278.17
9185.4
9093.87
9004.47
8912.53
8828.6
8711.77
8655.97
8567.5
8485.03
8390.93
8321.03
8075.6
8052.77
7685.77
7600.97
7640.83
7326.63
6980.03
6778.87
6215.17
5990.6
5954.5
5718.3
5216.47
5111.43
4377
4622.47
4180.07
3992.53
3664.4
3659.1
3187.73
2959.73
2853.1
2624.5
2448.4
2334.17
2173.67
2039.83
1931.77
1828.87
1663.77
1565.47
1481
1348.6
1275.73
1171.83
1116.33
1012.4
950.767
889.167
816.267
755.9
696.8
652.2
606.567
556.067
538.733
495.6
437.2
408.1
386.133
363.333
336
302.7
274.667
250.733
235.2
220.733
198.6
173.567
166.333
153.533
141.767
122.167
108.067
104.233
94.2667
82.9333
72.6667
61.8333
53.3333
47.1
39.3333
34.4
24.5333
20
12.4
9851.2
9753.27
9655.4
9558.77
9466.87
9371.5
9277.77
9185.6
9095.57
9006.43
8918.37
8781.07
8699.5
8655.33
8567.13
8430.77
8403.13
8313.4
8019.7
7854.87
7633.97
7534
7703.13
7516.83
7004.03
6768.77
6572.33
6059.63
5685.37
5194.13
5243.2
4933.57
4363.5
4433.93
4110.77
3704.93
3613.47
3373.03
3323.17
3094.87
2872.03
2695.37
2481.3
2343.47
2152.03
2049.3
1901.8
1795.3
1681.77
1561.33
1475.4
1370
1277.23
1161.3
1091.97
1051.13
953.8
880.3
836.6
767.567
709.5
649.633
592
557.2
554.433
492.133
448.433
411.033
390.967
366.533
328.233
301.267
275.733
256.2
238.767
226.367
198.833
185.2
167.933
152.633
136.567
123.1
112.167
99.3333
89.3333
80.5667
73.6
61.7667
53.1333
46.6333
40
34.1
26.7667
21.7667
14.5333
9851.13
9753.47
9656.8
9561.27
9465.73
9368.9
9279.1
9186.17
9095.27
9004.07
8914.2
8827.23
8676
8654.13
8572.4
8418.17
8354
8284.87
8177.73
8042.23
7779.23
7556.73
7577.67
7341.3
6997.53
6916.17
6564.07
6181.23
6111.97
5652.13
5308.07
5236.17
4901.33
4213.87
4298.67
3919.47
3862.83
3442.97
3183
3034.83
2699.23
2696.23
2503.53
2319.5
2277.67
2069.57
1915.17
1793.6
1723.93
1565.93
1441.37
1365.33
1274.33
1179.73
1090.37
1020.5
923.067
878.067
836.3
757.967
680.167
641.067
606.667
554.5
528.033
494.933
439.1
397
381.533
357.233
322.033
292.433
279.633
265.033
244.3
212.833
188.167
185.033
161.333
152
138.2
126
109.067
99.7
92.7
80.0333
69.8
61.1667
55.5667
45.8333
39.3333
33.7333
27.9667
19.3333
16.7667
9851.1
9753.3
9655.33
9560.23
9464.77
9371.97
9276.83
9186.47
9094.73
8973.53
8918.53
8826.53
8741.87
8653.27
8491.8
8443.83
8248.8
8165.07
8242.1
7976.83
7820.33
7869.8
7337.53
7240.03
6938.57
6920.77
6017.43
6185.5
6362.4
5758.5
4998
4883.8
4500.33
4272.6
4319.8
3682.07
3608.27
3563.67
3170.03
2944.73
2819.17
2661.13
2504.97
2381.33
2165.4
2053.43
1910.37
1843.77
1723.3
1593.13
1486.8
1378.4
1244.4
1210.53
1119.33
1032.6
932.267
908.8
833.1
770.567
718.067
639.833
602.967
571.033
516.767
494.567
449.4
413.533
388.3
351
328.067
292.7
267.8
251.167
232.7
227.333
193.433
182.467
166.9
149.4
135.5
121.167
114.4
104.067
90.6333
78.9667
72.4
63.6333
53.5
46.1333
39.8
35.3667
28.4
20.3667
15.1333
9851.13
9752.9
9655.93
9559.93
9464.97
9370.77
9279.77
9184.97
9097.27
9002.93
8860.2
8829.73
8741.93
8655.5
8568.47
8436.9
8307.4
8280.67
7970.9
7968.53
7921.13
7430.2
7530.2
6708.63
7078.37
6591.4
6314.77
6296.9
6063.33
5528.13
5306.97
5032.8
4447.23
4226.37
3918.67
3782.07
3516.77
3479.63
3084.7
3039.67
2874.5
2666.63
2402.9
2380.8
2224.4
2059.93
1939.73
1763.4
1650.77
1519.77
1461.4
1372.5
1265.87
1165.77
1093
1022.7
938.333
870.967
816.7
740.967
693.467
670.4
617.7
553.567
499.5
485.7
437.5
427.167
373.867
356.867
325.733
306.867
276.533
251.667
230.5
219.467
199.733
182.967
162.067
150.733
136.4
121.067
110.2
102.8
90.1333
77.9667
72.4667
61.6333
54.7
48.3
39.7
33.3667
26.3333
21.4333
14.9667
9850.77
9753.07
9655.77
9559.2
9465
9371.33
9277.3
9185.97
9094
9004.93
8914.77
8825.93
8696.4
8655.13
8570.1
8482.97
8286.13
8060.23
8073.43
8159.03
7790.57
7625.5
7343.07
7337.7
7146.9
6950.13
6142.27
6318.97
6185.23
5627.7
5396.43
5240.4
4755.2
4463.4
4137.57
4051.13
3731.97
3470.37
3335.13
2914.6
2927.1
2737.57
2467.07
2283.53
2175.33
2104.6
1938.6
1816.8
1620.73
1557.1
1457.63
1386.2
1255.4
1175.53
1092.13
1013.4
942.1
856.833
814.767
763.467
701.933
629.4
601.633
548.4
547.9
494.967
450.3
399.233
397.067
354.6
316.867
302.967
267.6
265.033
232.133
208.867
193.9
190.1
165.433
149.367
138.467
120.233
112.833
104.433
88
75.5
70.8333
65.5667
56.7667
48.8333
40.3
31.6333
27.9667
20.7333
15
9851.23
9753
9655.9
9559.47
9465.23
9371.3
9278.83
9186.37
9095.53
9006.27
8916.97
8827.07
8744.33
8654.53
8529.37
8328.67
8338.23
8202.83
8024.53
8097.7
7661.33
7520.17
7385.67
7273.5
7143.77
6864.77
6320.23
6482.47
5884.17
5722.87
5208.9
4805.87
4674.17
4478.1
4073.67
3777.2
3616.23
3366.67
3137.23
3010.7
2783.37
2618.93
2504.7
2379.9
2207.5
2044.23
1960.8
1765.73
1666.03
1583.5
1469.4
1363.53
1256.7
1210.3
1093.73
1044.87
954.467
859.567
816.7
778.7
700.4
668.7
606.233
552.133
527.267
486.733
441.967
412.833
384.533
348.733
324
294.2
286.167
259.133
234.9
212.967
201.5
186.333
165.233
154.8
136.5
123.433
112.533
100.2
92.5
78.3667
71.1
62.1
53.6333
46.6667
39.3667
33.3667
26.6667
20.7
16.5
9851
9753.17
9656.37
9559.53
9465.4
9371.17
9277.03
9184.63
9094.6
9002.8
8894
8827.47
8739.77
8660.63
8567.7
8408.73
8398.17
8087.2
8080.63
7921.93
7838.77
7390.6
7363.27
7146
6869.03
6956.27
6495.43
6008.13
5776.4
5838
5601.23
5206.03
4736.5
4261
4019.4
3761.77
3497.4
3529.07
3134.3
3008.97
2882.3
2674.83
2535.87
2354.8
2171.93
2046.13
1890.93
1785.63
1631.77
1569.1
1454.33
1384.27
1278.47
1169.03
1081.47
999.6
950.433
902.633
817.5
779.267
700.333
652.033
594.167
537.133
528.567
491.6
456.033
418.733
381.633
361.967
333.833
296.633
272.967
259.5
231.433
220.6
199.333
184.933
165.233
152.067
144.367
128.267
113.633
100.167
89.9333
79.1667
72.7
63.3
54.7333
48.2
38.0667
32.9333
25.0667
19.9
15.2
9851.27
9753.3
9656.3
9561.03
9464.07
9370.07
9279.77
9187.57
9092.83
9004.47
8919.57
8828.93
8740.9
8656.43
8537.23
8485.2
8391.37
8155.07
8109.83
7973.63
7738.93
7536.57
7574.17
7218.07
6838.9
7064.43
6593.77
5856.93
5981.9
5906.97
5629.03
4663.1
4779.67
4524.17
4194
3940.97
3656.37
3345.87
3133.87
2971.57
2797.47
2638.37
2523.83
2334.6
2218.67
2087.9
2010.83
1779.97
1701.27
1522.73
1472.57
1348.03
1302.73
1202.4
1122.97
1014.03
942.6
892.7
812.9
765.467
718.6
665.367
619.833
563.667
535.133
470.3
460.1
421.967
382.067
349.367
334.233
294
271.4
259.833
232.067
211.867
198
183.4
171.533
156.667
136.667
126.1
109.7
97.9667
92.3
78.0333
71.2667
60.8
57.0333
47.2
40.7
32.6667
27.2
23.3
17.3667
9851
9753.03
9655.63
9560.7
9464.07
9370.87
9279
9186.77
9093.97
9004.53
8915.47
8826.73
8741.7
8652.6
8570.67
8455.8
8299.2
8252.13
8072.67
7960.77
7832.3
7500.53
7646.53
7270.93
6799.47
6917.83
6430.93
5969.47
6150.53
5432.37
5562.83
5027.73
4902.77
4600.47
4113.67
3820.17
3707.8
3304.7
3155.07
2960.7
2943.1
2597.13
2508.23
2293.33
2244.77
2045.83
1875.83
1752.73
1727.2
1588.5
1493.8
1370.47
1300.3
1180.7
1129.03
982.033
947.433
904.067
827.3
755.2
704.7
653.833
605.033
554.533
510.733
488.933
434.467
410.1
395.867
345.733
327.467
303.4
273.1
260.6
244.6
205.467
195.667
188.967
160
151.367
135.767
128.467
115.533
100.3
90.4333
78.7333
69.4
64.9333
54.1
45.2667
36.1
33.3
25.7667
21.5
16.2667
9851.03
9753.27
9655.9
9559.8
9464.9
9370.8
9277.93
9187.43
9094.23
8967.53
8917.2
8826.13
8742.17
8619.83
8521.17
8486
8243.3
8101.57
8191.1
8065.87
7779.07
7681
7586.93
7270.6
6942.13
6851.2
6056.8
6452.07
5736.77
5407.4
5094.57
4819.67
4613.87
4333.37
4338.47
3800.63
3662.83
3359.87
3324.2
3086.2
2773.03
2636.13
2488.67
2338.1
2151.73
2080.9
1950.5
1836.27
1709.83
1551.97
1449.73
1352.4
1255.87
1193.8
1115.13
1022
968.233
903.1
834.233
751.133
721.067
650.4
620.967
562.6
513.033
484.8
450.433
413.9
375.033
353.7
329.4
300.1
279.367
260.233
239
222.6
201.333
182.5
169.733
148.2
138.167
123.3
111.2
102.833
91.6
82.6
69.5
57.4333
53.7667
47.5667
38.7
33.5
28.3
22.4333
16.2
9851.07
9752.93
9656.4
9559.4
9464.2
9372.27
9278.4
9186.33
9095.27
9005.87
8916
8779.43
8739.7
8628.4
8481.8
8449.07
8370.5
8222.63
8054.63
7957.6
7996.2
7732.9
7507.33
7187.2
7108.7
6683.03
6743.7
6327.57
5786.1
5541
5433.47
4757.07
4669.43
4217.67
4142.2
3989.47
3588.97
3551.43
3133.3
3010.57
2762.97
2603.53
2506.1
2315.53
2212.4
2081.07
1894.5
1838.1
1642.03
1567.97
1445.43
1368.73
1312.77
1200.73
1094.17
1027.17
945.667
912.933
833.1
779.267
721.9
660.2
626.933
552.033
521.033
474.333
450.833
425.067
385.033
361.6
318.067
301.6
274.933
261.867
234.933
220.333
192.433
181.4
167.167
150.833
135.467
126.3
115.233
104.467
88.5333
80.1
71.6
60.4333
55.9
48.4333
40.2333
33.1
26.1
21.5333
15.7667
9850.97
9752.8
9656.37
9559.93
9464.73
9371.97
9276.93
9186.57
9094.63
9004.43
8884.37
8752
8698.23
8654.7
8526.1
8428.5
8302.4
8266.43
8112.9
7920.2
7514.87
7663.1
7446.37
6878.03
7225.37
7085.3
6850.67
6442.07
6206.73
5305.3
5574
4863.37
5038.47
4484.67
4068.8
4248.47
3530.23
3396.3
3200.3
3014.57
2793.8
2620.27
2420.1
2412.63
2238.27
2072.17
1914.43
1.11406e+08
4.62678e+07
212950
1.37756e+08
1.77484e+08
1.11416e+08
1.3109e+08
6.58218e+07
1.05206e+08
71387.1
956.767
5.61802e+07
5.98465e+07
8.58429e+07
7.93794e+06
6.14145e+07
1.50753e+08
1.17281e+07
6.58912e+07
1.32839e+08
6.58217e+07
1.57633e+08
4.59406e+07
4.59447e+07
1.99494e+07
284.033
254.833
237.633
213.167
200.4
184.1
163.467
147.267
145.933
126.233
113.2
100.2
87.8
78.4667
70.5667
62.9667
55.7333
6.14346e+07
2.2887e+08
4.59427e+07
1.61639e+08
1.35468e+08
2.00879e+07
