Transmission rate explicitly defined as it changes, innoculation rate varies from 1 to 95 in the list, but are not explicitly stated for ease of copying and pasting
45
44.0333
41.8667
42.7333
38
42.4667
36.5
35.8667
32.9
36.1667
34.4333
31.8333
37.0333
32.5667
33.4333
32.6667
31.7
32.8
29.9667
30.1
30.8667
27.4333
26.9667
28.5333
27.3
27.3667
23.1333
27.3667
26.3333
25.5
26.6667
23.3
23.3
20.2333
22.1
20.8
20.9333
22.1
18.3667
19.7667
19.1
19
18.3667
19.5333
16.1
17
15.1333
14.1
16.3333
17
15.3667
16.4333
14
14.4333
14
13.1333
13.7667
12.6
13.0333
11.7667
11.3
9.46667
10.8667
10.1333
9.2
9.6
7.9
8.33333
9.26667
7.96667
8.66667
7.63333
6.96667
6.63333
6.63333
5.8
5.76667
5.63333
5.73333
5.36667
4.83333
4.53333
5.16667
3.93333
3.86667
2.83333
3.26667
2.9
2.53333
2.16667
2.06667
1.96667
1.5
1.13333
0.766667
162
155.7
156.933
154.7
148.233
151.167
136.833
127.4
133.3
128.267
118.767
117.767
113.7
115.2
106.467
103.433
106.1
99.6667
101.2
87.4667
95.1667
84.8667
86.0333
84.8333
83.8
80.6333
83.3333
80.9
71.4333
74.1
74.5
69.2333
65.4
67.7667
61.7667
59.2
59.1667
56.7
55.4667
55.1333
52.6333
49.5
52.1
47.4667
49.6333
44.0667
41.1
40.2667
39.7
38.1667
38.3
37.6
36.6
33.5333
35.5
32.8667
29.4333
29.4333
29.0667
27.9333
28.4667
27.3667
24.4
22.4667
19.9667
22.3333
21.2
18.9667
18.0333
18.8667
16.4333
16.2667
17.2667
14.1333
15.0333
14
13.2333
11.7
11.3667
11.5
11.0333
9.86667
8.26667
8.9
7.5
6.76667
6.13333
5.46667
4.73333
5.76667
4.36667
3.53333
2.66667
2.53333
2.43333
491.7
461.2
459.2
442
430.767
390.167
379.967
361.167
358.967
338.7
317.133
327.467
299.067
281.567
280.667
274.067
270.6
245
241.667
233.367
222.9
228.833
217.7
208.033
187.1
172.6
168.233
166.667
167.867
156.133
141.333
148.233
142.833
138.467
133.267
115.667
121.5
116
114.7
111.367
103.933
95.9667
97.8667
97.1667
86.5333
84.7
83.5
76.0667
76.7667
70.1
69.5
72.3
61.5
59.9
62.0333
59.3667
55.8333
55.2
52.2667
51.2333
45.4333
47.8333
42.3333
43
36.8667
38.6667
35
35.5333
29.9333
32
27.1
28.0333
26.3
24
25.4
24.2333
21.2667
21.1333
17.5
17.6333
15.4
13.7333
14.1333
12.3
10.9667
10.5333
10.0667
9.43333
7.76667
6.23333
6.46667
5.56667
4.96667
3.73333
2.76667
1258.73
1216.37
1111.27
1066.17
1046.23
989.9
877.5
852.3
807.4
760.233
757.367
659.833
649
632.833
607.133
565.867
537.6
515
491.667
459.5
458.9
406.733
391.7
397.233
357.333
361.7
343.333
332.867
303.067
285.333
265.267
273.467
248.9
244.933
237.667
240.9
209.467
208.5
193.133
186.933
185.6
161.133
165.633
161.2
151.8
140.267
136.033
125.2
132
118.8
116.767
105.3
98.6667
100.133
93.7
87.5667
84.6333
83.0667
80.2
74.9
73.5667
69.3333
61.2667
58.7333
56.4333
54.5667
50.8
51.4667
45.9
43.6333
42.2667
42
36.9333
35.4667
31.4333
32.0667
29.8667
29.4667
27.2667
24.1333
22.4667
22.0667
19.3333
17.7667
15.4667
15.2333
14.2333
11.2333
10.6333
9.76667
7.93333
6.7
6.1
5.03333
4.23333
2702.87
2518.4
2413.8
2206.7
2133
1987.4
1825.7
1720.07
1649.1
1539.07
1465.2
1286.7
1310.9
1153.33
1109.27
1022.5
958.167
906.033
875.467
809.167
766.533
749.633
723.833
680.8
624.767
606.767
542.967
530.367
498.333
470
450.8
428.333
422.2
388.233
375.9
356.667
327.7
317.167
300.1
291.3
275.167
254.533
247.8
238.433
232.933
215.5
195.433
189.967
175.9
175.333
173.5
157.467
157
147.033
134.667
129.8
123.733
114.767
110.133
106.667
99.7
93.0333
89.5667
83.7667
84.0667
77
74.3333
68.9
68.5
60.3333
54.7333
52.8667
50.1
48.6333
46.9667
39.2
37.6667
34.2333
34.8667
31.0333
31.0667
26.8333
23.0333
22.1333
21.3333
21.2333
16.2333
16.5667
12.8667
12.2667
10.1333
10
7.26667
6.5
5.23333
5112.7
4800.83
4176.27
3976.7
3726.4
3530
3213.93
2955.03
2776.47
2517.47
2500.8
2176.3
2106.6
1895.77
1868
1750.33
1597.37
1506.8
1398.87
1293.53
1199.4
1172.7
1155.13
1043.47
968.5
946.867
856.167
788.767
763.967
722.233
692.133
649.1
624.467
578.767
548.633
516.2
494.433
478.633
430.233
415.767
391.3
356.5
347.967
352.567
298.6
305.867
279.667
262.733
246.533
244.667
238.367
212.7
198.833
195.433
189.567
162.9
168.367
148.633
151.3
142.133
125.8
133.8
117.433
112.9
101.967
91.6333
95.2
93.8667
85.4
71.3
74
66.6667
63.8333
59.2333
57.7333
52.2
48.6667
44.4
39.3
37.6333
31.9333
31.6667
28.0333
23.7667
24.9667
22.5333
20.7333
17.6
14.3667
14.9667
12.9667
11.0333
8.33333
7.16667
5.8
7536.67
6925.2
6633.27
6029
5769.63
5408.8
4992.4
4616.97
4294.43
3894
3680.57
3510.97
3161.23
2979.67
2710.23
2617.33
2413.33
2157.53
2133.7
1968.53
1847.53
1673.7
1570.07
1483.53
1462.87
1351.97
1242.07
1131.47
1106.67
1047.23
943.9
944.067
846.833
793.967
751.133
713.933
659.367
624.4
583.367
545.167
525.033
490.267
452.867
444.833
406.2
382.833
387.167
352.667
326.2
303.333
292.167
288.6
263.1
244.833
226.633
213.1
203.533
192.933
175.7
167.533
156.833
153.9
145.333
141.6
125.267
120.767
110.967
108.3
99
89.4333
78.6
79.5
77.5667
71.4333
62.9667
57.3333
58.9667
52.6333
52.7
48.8333
40.3333
38.4
38.3667
32.4667
29.6
25.4
23.3667
20.1667
18.0667
15.8333
14.6
11.1
9.8
8.16667
6.6
8924.23
8653.4
8312.2
7748.83
7502.47
7122.23
6419.37
5991.3
5748.57
5493.27
5028.33
4560.63
4219.87
4046.17
3709.47
3445.3
3204.23
3063.5
2941.87
2594.57
2427.97
2350.47
2133.2
1981.63
1833.4
1779.77
1644.2
1509.2
1400.5
1335.17
1187.53
1152.83
1107.07
1014.6
939.4
842.867
856.167
800.4
749.033
722.833
658.367
599.4
558.367
561.3
496.533
487.2
458.167
422.767
390.833
373.733
345.6
335.467
309.467
294.467
286.267
258.7
242.333
236.5
227.3
202.9
198.467
180.1
180.4
157.1
146.5
148.433
140.833
125.467
122.367
108.6
102.233
95.5333
90.6
84.3333
80.9
71.1
68.2
63.4667
56
50.1
47.3
43.3667
39.9667
36.9667
33.9667
29.9
25.6
23.9333
22.3667
17.3667
16.1333
14.0333
11
8.53333
6.66667
9637.63
9368.07
9089
8807.67
8451.5
8218.67
7810.13
7488.7
7093.63
6569.87
6232.3
5883.77
5493.87
4993.23
4726.73
4375.13
4034.1
3799.67
3509.1
3232.8
3066.33
2797.73
2654.5
2510.23
2314.7
2135.4
2063.73
1860.53
1737.13
1653.17
1565.03
1495.17
1353.83
1247.1
1177.63
1073.53
1008.97
979.033
900.433
830.967
812.6
718.267
723.533
658.933
619.7
598
544.3
514.3
486.8
452.4
436.033
417.3
370.633
351.267
344.067
296.167
295.5
278.4
258.767
243.567
226.8
204.6
190.633
190.8
173.5
163.367
154.633
139.1
134.067
133.8
120.467
108.433
98.9
97.6
90.4667
83.0667
72.3
71.4333
63.9
60.1667
54.6333
51.2
44.3667
40.1
37.6
34.1333
30.1333
26.5
22.4667
18.3333
17.3333
14.6333
11.7333
10.4333
8.4
9804.07
9618.97
9498.8
9304.9
9193.77
8828.27
8537
8156.6
7929.13
7499.03
7261.7
6843.13
6259.3
6121.53
5583.6
5215.63
5027.87
4540.6
4164.73
3907.77
3665.5
3440.27
3309.13
2940.93
2791.2
2637.77
2484.23
2271.6
2104.77
1976.63
1845.1
1683.07
1619.93
1497.5
1420.8
1335.37
1156.77
1136.63
1076.83
1028.6
940.433
890.5
826.833
779.733
735.467
664.933
634.767
606.7
546.4
538.967
485.767
474.067
428.167
399.733
369.367
361.967
343.5
307.6
297.667
279.233
266.967
243.7
227.133
203.433
197.033
175.733
181.5
163.4
147.267
143.4
129.367
124.467
123.533
100.133
99.3333
91.4
83.7
77.9333
72.8667
66.7667
58.6333
54.2667
50.9667
43.8
41.5667
36.0333
35.0333
28.6
26.0333
20.8667
20.3333
16.3
13.6667
11.0333
9.16667
9828.6
9660.77
9590.03
9431.17
9328.1
9015.27
8794.5
8740.57
8293.33
7957.23
7793.63
7569.03
7214.8
6507.17
6438.53
5752.6
5551.13
5180.97
4999.23
4523.33
4378.47
4098.8
3655.67
3492.63
3248.8
3009.37
2875.1
2615.5
2413.53
2296.23
2166.63
1960.8
1876.2
1690.03
1612.13
1547.23
1380.83
1347.03
1213.1
1128.67
1080.97
1036.07
971.267
865.967
798.967
789.067
732.7
687.667
629.333
608.767
552.6
510.233
483.967
453.033
423.7
381.233
376.867
363.633
327.6
299.733
285.733
280.6
253.133
239.533
220.867
200.967
191.133
180.1
164.6
152.933
142.267
141.767
120.133
116.8
107
100.833
92.1333
88.2
82.9333
68.2667
66.2333
62.9
53.1667
48.9333
44.1333
39.3333
34.9
31.8
26.9
23.6667
21.4333
17.2667
14.2
11.3333
8.86667
9830.67
9741.7
9642.27
9529.67
9256.8
9225.53
9045.8
8814.6
8482.27
8598.23
8139.57
7908.97
7553.5
7232.13
6979.67
6320.23
6242.57
5918.67
5656.67
5110.37
4708.23
4362.97
4272.77
3877.07
3690.1
3470.23
3179.73
3048.3
2772.57
2585.67
2414.8
2304
2118.37
1931.73
1868.6
1681.1
1577.7
1492.3
1364.5
1297.97
1208.57
1131.33
1095.7
980.667
951.067
886.267
803.567
769.467
686.933
639.267
609.6
581.467
538.533
499.7
478.167
436.4
411.867
389.2
368.933
338.433
320.533
305.867
275.533
259.567
251.8
218.867
203.333
195.933
171
171.7
159.933
146.6
140.667
127.167
119.733
108.867
97.4
91.4333
90.6333
74.6
68.6333
66.6
55.4667
51.2
49.1
41.6
38
34.1667
28.4
24.5667
22.0667
17.6333
15.2333
12.4333
9.03333
9846.07
9748.77
9649.67
9525.57
9443.03
9305.93
9220.73
9038.73
8803.13
8606.7
8442.37
8262.03
7865.13
7802.23
7281
6969
6232.67
6375.13
5962.37
5465.7
5105.37
5046.27
4493.27
4242.4
3956.47
3714.87
3609.93
3233
3021.33
2909.53
2716.9
2550.27
2320.1
2150.07
2039.47
1885.43
1771.2
1649.33
1565.4
1415.3
1358.43
1277.8
1183.37
1100.1
1001.5
976.833
895.933
800.867
797.567
728.467
696.133
647.867
611.733
556.733
512.133
482.3
462.9
422.2
386.333
373.033
351.767
328.1
311.767
282.7
262.1
244.733
216.567
216.267
207.667
178.8
178.233
158.5
152.333
135.333
127.067
120.9
107.733
99.5333
89
80.4667
72.3667
70.9333
63.7333
57.7333
49.0333
46.8667
41.1667
34.3
30.7667
25.6
24.6
16.3667
16.9333
12.1667
9.66667
9849
9750.4
9653.33
9535.2
9443.67
9344.37
9219.63
9137.5
8842.63
8772.3
8660.47
8450.2
8179.23
7819
7686.47
7459
7017.33
6308.5
6388.1
5912.2
5420.07
5377.07
4944.97
4515.77
4218.03
4072.93
3884.93
3705.93
3361.8
3186.07
2913.27
2779.7
2627.73
2390.53
2272.37
2058.37
1968.6
1786.2
1733.43
1604.47
1464.9
1351.37
1280.2
1187.5
1100.23
1066.87
947.333
904.133
837.433
823.833
739.5
669.767
647.667
595.9
551.267
529.7
482.233
466.667
411
401.8
369.167
341.533
321.567
291.2
279.833
260.733
237.133
230.7
202.867
197.667
183.067
175.167
158.833
143.833
135.167
126.233
115.667
109.4
98.5333
85.4
78.1
74.7
66.6
58.7667
55.4
47.9
45.6
35.9333
34.4333
28.7
23.9
20.1
18.6667
13.2
10.8
9849.93
9751.33
9654.6
9558.03
9462.67
9367.47
9262.93
9128.87
8979.83
8869.73
8654.1
8575
8420.4
8078.07
7891.23
7564.2
7343.7
6966.47
6345.53
6203.23
5856.63
5544.03
5318.5
4742.23
4524.2
4347.33
4064.9
3865.9
3543.47
3371.27
3106.2
2903.77
2816.53
2522.1
2409
2299.6
2108.37
1964.3
1775.33
1712.67
1591.4
1465.77
1378.23
1270.07
1215.3
1132.03
1008.93
981.2
894.3
876.533
754.3
744.933
680.2
656.467
580.4
574.733
523.233
487.6
459.767
401.2
397.533
365.2
344.267
320.133
300.667
277.933
267.1
237.733
220.433
203.433
192.733
187.533
164.8
160.2
146.333
131.767
125
105.3
100.367
95.8
83.1333
78.3333
66.7667
60.8333
55.2333
53.3667
44.7
39.7333
34.7667
30.4667
24.9667
20.9667
16.6
14.0667
10.7
9850.33
9752.57
9655.3
9559
9464.2
9344.43
9256.43
9158.2
8954.63
8913.4
8832.7
8637
8348.37
8177.57
7929.8
7801.97
7340.47
7263.6
6636.57
6360.07
6165.07
5783.67
5460.23
5327.83
4951.9
4492.3
4207.47
4053.07
3772.5
3462.53
3274.37
3180.97
2970.63
2766.03
2584.53
2396.43
2183.33
2044.6
1968.17
1791.57
1669.37
1557.83
1501.57
1337.23
1305.5
1151.93
1110.23
1015.97
929.2
920.4
844.433
787.467
733.567
676.233
608.067
595.233
553.433
510.467
473.9
447.367
410.3
387.433
348.367
344.967
301.433
301.533
264.033
257.667
236.733
223.067
196.2
182.133
179.833
159.667
150.533
142.167
129
112.833
106.467
98.5333
88.6667
83.8667
71.9667
65.8333
57.5667
50.3667
47
41
37.5667
33.7
28
22.2
19.0667
14
12
9850.93
9752.93
9655.63
9550.9
9465.23
9370.07
9275.6
9186.1
9013
8886.47
8787.5
8726.37
8550.5
8269.3
8271.03
7773.37
7713.9
7439.53
7323
6623.87
6435.9
6003.37
5788.77
5453.9
5182.17
4747.3
4527.8
4422.8
3929.33
3712.67
3521.9
3170.4
3083.2
2896.4
2559.47
2478.7
2356.4
2188.93
2003.23
1921.6
1779.27
1634.53
1580.4
1453.6
1426.87
1202.37
1162.53
1122.83
990.367
913.8
887
794.033
747.867
717.833
671.933
639.233
590.333
547.6
512.233
471.367
435.733
425.633
384.433
359.433
315.933
307.467
281.8
258.833
236.267
220.233
215.267
194.067
183.767
158.7
154.3
138.4
126.967
123.333
108.6
102.367
93.6
81.9
74.8667
68.1
62.2333
55.8667
48.0667
41.6333
34.4333
34.2
27.5667
21.5667
18.1667
13.9333
11.5
9850.97
9753.07
9655.8
9559.5
9465.13
9371.5
9242.2
9131.87
9093.53
8985.5
8908.67
8653.97
8534.37
8533.53
8080.27
8007.77
7873.13
7414.63
6925.93
6888.77
6688.13
6322.73
5962.83
5369.5
5251.63
4956.2
4653.03
4395.77
4274.53
3985
3749.43
3368.9
3111.57
3015.6
2840.97
2672.6
2491.8
2350.67
2166.8
2079.2
1843.23
1737.9
1600.63
1537.57
1410.87
1312.23
1220.07
1139.03
1083.3
951.4
901.2
847.367
786.267
742.767
713.067
652.933
618.833
578.6
533.6
484.9
446.467
419.733
384.767
359.267
345.833
318.533
295.9
277.467
251.267
237.233
228.433
199.167
194.133
177.5
161.233
149.033
138
123.567
112.067
106.667
92.7667
88.5333
78.0667
68.9333
66.3667
57.2667
47.7
47.0333
39.5333
33.1
27.4667
23.9667
18.9333
15.4667
11
9851.23
9752.7
9655.83
9560.4
9465.27
9370.43
9258.13
9161.43
9095.07
8966.83
8906.83
8774.6
8571.4
8424.97
8362.4
7725.67
7611.07
7766.23
7268.67
7255.23
6631.13
6389.93
6169.77
5884.17
5510.37
5188.73
4842.6
4503.83
4302.5
4008.97
3809.73
3452.77
3416.87
3078.5
3015.53
2747.8
2601.97
2365.53
2191
2131.7
1916.67
1859.7
1721.23
1526.63
1460.97
1302.7
1267.23
1216.7
1136.13
1026.7
972.433
927.867
847.5
801.433
696.367
677.167
630.933
563.433
544.267
513.367
470.433
424.5
416.4
373.767
371.3
325.7
315.367
285.1
272.133
247.133
229.867
208.4
199
181.233
162.5
152.033
135.467
128
117.067
110.033
99.6333
86.8333
80.4
68.8667
61.3333
59.4333
52.2667
45.3
41.8
34.6
29.3667
23.6667
19.5667
16.4667
11.4
9851.13
9752.93
9655.83
9559.43
9464.33
9368.1
9276.27
9139.17
9095.37
9002.63
8879.37
8731.8
8720.63
8463.93
8438.37
8166.77
7953.33
7512.33
7695.27
7371.47
6853.1
6578.57
6379.43
5612.97
5414.87
5300.43
4998
5044.6
4527.67
4044.97
3984.1
3777.47
3511.87
3246.33
3073.67
2855.4
2620.63
2463.9
2272
2208.8
2048.2
1896.7
1707.97
1684.07
1529.5
1410.63
1354.1
1269.97
1160.3
1088.47
981.967
927.233
913.633
819.033
761.1
725.8
673.133
617.233
574.1
515.267
493
449.433
435.1
400.7
377.733
351.1
324.567
287.633
274.933
258.667
230.467
220.3
196.1
185.6
169.333
154.9
145
136.433
120.4
104.733
98.2
92
80.6
73.2
66.1667
59.9
51.5667
45.1
41.3
35.9
29.4667
24.1667
20.2333
16.3667
12.6
9851.23
9752.93
9655.47
9559.53
9465.07
9370.63
9278.47
9162.23
9095.1
8956.5
8793.67
8772.2
8578.97
8543.33
8159.2
8243.33
8054.43
7841.17
7503.67
7477.7
6992.13
6694.4
6502.27
6239.67
5752.37
5219.23
5104.7
4719.7
4463.6
4250.97
3995.5
3856.87
3580.33
3245.43
3042.73
2980.33
2701.8
2592.37
2378.07
2194.57
2124.93
2011.1
1806.5
1687.23
1579.37
1479.87
1379.07
1298.53
1235.97
1110.9
1079.8
969.133
911.567
832.933
783.4
741.033
704.3
625.033
603.5
552.533
501.033
479.867
449.7
409.967
386.933
342.967
331.133
316.1
275.7
256.867
243.933
218.767
209.633
182.833
176
166.033
152.833
134.433
125.633
118.167
102.733
90.2667
83.2667
74.1
67.3
62.7667
55.8667
47.3333
38.5
37.3
28.6333
25.3333
20.4
16.6333
12.2333
9851
9753.7
9656.07
9559.03
9465.97
9370.73
9278.03
9186.13
9062.6
8966.07
8917.7
8791.17
8691.6
8417.67
8212.77
8198.83
8097
8164.2
7656.93
7490.27
6912.67
6666.77
6509.3
6546.4
5901.67
5626.97
5254.27
4919.1
4820.9
4319.8
3951.17
3894.1
3685.1
3386.33
3242.43
2997.9
2840.1
2599.4
2475.33
2340.57
2162.3
2034
1838.87
1783.87
1612.8
1473.4
1380.73
1342
1227.23
1180.93
1066.5
994.3
918.833
850.267
814.067
751.5
709.633
655.833
597.733
592.567
527.833
486.867
455.933
410.4
397.467
363.333
337.567
320.833
283.9
262.667
250.733
225.9
205.867
192.067
178.633
166.7
156.033
142.467
126.033
116.733
106.233
97.1333
85.6333
74.5667
71.3333
63.1
56.7
50
40.6333
35.4
31.6333
24.7
22.3333
16.8
13.7333
9851.1
9753.37
9656.6
9560.2
9464.47
9371.97
9277.73
9186.33
9063.77
9003.47
8872.97
8809.77
8735.73
8609.5
8440.6
8249.27
8250.23
7784.47
7838.33
7138
7294.67
7293.4
6407.9
6314.87
6117.93
5948.5
5500.57
5153.7
4568.33
4461.3
4358.17
3940.8
3790.63
3542.17
3338.2
3061.43
2864.3
2698.5
2551.83
2453.47
2253.53
2002.9
1910.77
1809.6
1689.27
1556.5
1451.87
1360.2
1276.73
1163.13
1082.1
1051
965.633
891.5
839.467
778.233
712.533
675.467
640.2
584.133
529.033
495.233
462.8
408.9
400.833
365.467
344.433
313.033
296.967
286.933
254.067
239.233
213.967
203
181.033
172.6
152.367
145.633
129.5
117.867
112.8
101.3
86.6
81.9333
70.9667
61.2333
57.0333
49.1667
43.3667
40.4667
30.5667
27.1667
22.0667
16.9333
12.7333
9851.47
9753
9656.03
9560.23
9466.2
9371
9277.93
9186.83
9062.83
9004.8
8882.97
8798.1
8740.43
8556.03
8452.77
8264.23
7981.17
7864.63
7796.8
7758.4
7348.77
7131.83
6808.13
6873.03
6391.5
5428.9
5683.47
5147.5
4623.83
4773.1
4195.57
4020.63
3867.13
3575.57
3399.43
3139.9
2956.97
2820.93
2610.77
2431.2
2211.63
2138.63
2062.6
1909.37
1734.8
1578
1454.37
1431.5
1336.1
1227.33
1136.8
1106.77
975.5
887.567
847.067
791.5
753.967
667.167
631.833
591.567
568.6
534.067
485.2
434.733
409.5
382.9
364.5
327.2
312.567
277.8
267.233
252.067
227.3
209.267
193.633
162.833
163.5
143.733
133.8
123.3
106.233
103.633
94.9667
82.6667
77.7333
63.4333
58.1333
50.3333
45.9667
38.3
32.3667
29.1333
21.4
19.1333
14.1333
9851.17
9753.47
9655.87
9560.17
9464.53
9372.03
9277.67
9185.8
9067.27
8949.17
8910.63
8800.83
8741.13
8564.17
8486.8
8325
8287.87
7926.83
7865.7
7535.2
7393.47
6936.3
6648.57
6506.07
6178.77
5849.7
5568.73
5417.73
4930.43
4505.37
4497.17
4229.9
4002.13
3572.03
3384.73
3227.2
3079
2789.77
2642.53
2521.1
2357.97
2224.47
2064.93
1887.07
1800.53
1676.47
1533.77
1462.07
1355.17
1251.17
1156.47
1108.97
1003.93
937.867
871.567
830.867
748.933
709.333
653.233
603.133
567.767
532.233
481.567
449.2
408.733
392.2
360.8
326.2
305.867
278.9
268.567
246.4
223.4
206.067
187.667
175.3
160.767
155.367
129.867
127.267
110.133
105.433
96.5333
80.0667
72.8333
68.1
57.7
51.5333
45.2
41.2
34.8
27.1667
22.2667
17.4333
14.6667
9851.07
9753.1
9656.27
9560.57
9465.77
9371.03
9277.9
9185.77
9073
9007.07
8913.9
8829.2
8740.13
8589.3
8448.07
8407.5
8090.8
8107.63
7697.5
7663.63
7296.27
7288.33
6693.4
6685.7
6103.47
6194.33
6015.7
5311.27
5291.9
4778.8
4716.07
4139.53
3894.53
3726.4
3499.6
3220.9
3032.23
2797.87
2648.33
2503.2
2387.13
2233.03
2009.87
1921.7
1806.8
1698.4
1557.63
1430.27
1337.7
1271.73
1205.43
1077.17
1033.03
943.833
904.1
824.667
790.167
709.3
640.433
629.967
590.8
515.433
502.433
468.033
423.933
394.8
365.633
344.1
320.167
295.867
264.1
261.233
233.467
218.767
198.867
175.433
162.233
150.233
139.133
130.733
120.9
105.6
97.2
84.2333
76.7667
68.6667
58.2333
55.5667
46.7333
41.3333
29.7
23.8
22.8333
17.0333
14.8333
9851.13
9753.17
9655.83
9560.2
9450.93
9346.37
9278.57
9187.23
9097.1
9006.37
8879.77
8826.87
8671.3
8646.8
8533.13
8341.97
8229.63
7899.63
7936.73
7743.13
7343.5
7252.77
6833.1
6531.2
6346.27
6461.27
5773.83
5635.53
4941.67
4795.83
4460.63
4394.53
4142.2
3864.53
3541.3
3318.27
3116.47
2934.93
2751.6
2602.77
2392.67
2286.73
2128.1
1970.47
1892
1730.87
1594.5
1564.7
1468.9
1283.73
1230.03
1101.37
1066.67
984.033
890.967
835.8
782.3
713.367
684.2
628.6
582.033
537.167
520.367
470.167
428.733
412.567
366
350.6
312.667
304.5
267.567
248.9
235.167
212.4
202.4
184.4
165.9
155.6
139.233
128.167
110.133
105.833
98.8333
83.0667
76.8333
67
61.3333
51.7333
48.1667
39.3
33.7667
28.6333
25.8
17.7333
13.6667
9851
9753.57
9656.5
9559.87
9465.5
9370.67
9248.13
9185.67
9064.67
9004.43
8916.5
8828
8693.8
8569.43
8460.7
8343.73
8301.3
8147.67
7665.4
7581.57
7575.47
7205.57
6943.27
6962.17
6707.27
6128.47
5628.13
5738.3
5188.77
4805.3
4599.13
4464.77
4313
3994.7
3602.97
3453.07
3128.57
2901.37
2803.8
2522.17
2398.07
2236.2
2086.43
2025.93
1898.67
1748.7
1625.53
1547.73
1424.03
1305.63
1197.8
1130.43
1089.9
990.5
920.867
855.067
814.367
739.9
708.5
637.933
602.5
578.5
498
461.733
439.533
414.6
378.133
354.667
333.8
300.967
285.167
263.5
240.8
218.9
194.767
182.4
178.1
156.1
137.967
129.533
110.867
103.967
97.1333
90.3667
79.2
70.9
62.4667
54.9333
48.2
41.6
32.8667
29.4
22.3
19.7
14.2333
9850.9
9752.73
9657.2
9559.43
9465.63
9370.37
9278.57
9186.93
9096.1
8977.6
8915
8716.87
8661.27
8640.77
8431.87
8352.5
8350.53
8159.93
7820.93
7542.3
7350.2
7124.7
6952.73
7100.1
6697.53
6263.03
6095.47
5395.23
5453.3
5320.47
4620.77
4423.97
3955.4
3667.8
3769.37
3630.93
3122.73
2995.1
2882.1
2610.53
2480.37
2312.17
2145.2
2002.8
1943.83
1802.67
1623.93
1534.9
1451.1
1353.43
1230.47
1167.5
1096.5
1019.2
919.867
874.367
816.3
755.433
690.033
648.567
587.667
563.033
519.5
475.567
448.867
429.467
387.4
348.933
330.267
293.9
282.733
261.133
233.067
222.133
204.633
180.2
176.6
155.7
139.4
137.167
123.5
107.467
94.8
87.7333
82.1333
68.5333
65.6333
53.7
47.3
42.4667
35.3
28.5
24.9667
19.5333
14.3333
9851.2
9752.73
9655.37
9560
9466.07
9369.67
9279.47
9184.5
9096.67
9004.7
8888.2
8720.2
8738.2
8583.73
8481.87
8339.5
8270.8
8208
7942.8
7717.6
7544.97
7358.4
7069.8
7106.1
6664.13
6751.43
6018.07
5424
5117.63
4998.23
4794.4
4404.7
4156.2
4052.4
3777.77
3325.4
3253.63
2977.13
2851.87
2723.13
2475.77
2330.1
2250.13
2031.07
1905
1796.57
1706.97
1533.2
1440.1
1340.9
1308.67
1144.67
1101.1
1026.43
982.5
871.867
830.5
749.133
706.933
658.333
636.433
543.3
528.333
476.833
458.933
425.5
391.4
370.5
332.5
299.6
278.767
257.633
251.033
220.933
206.7
189.867
171.467
165.333
148.233
133.167
126.8
105.733
99.5333
88.4333
80.7667
69.1667
64.1667
54.8
49.7333
41.0333
33.2333
29.4667
23.2667
19.2
15.7333
9850.77
9752.87
9656.5
9559.67
9465.23
9371.77
9277.63
9186.3
9095.93
8976.27
8915.6
8826.33
8740.07
8598.73
8436.13
8380.9
8199.77
8078.97
7972.63
7671.23
7507.8
6947.5
7143.77
6661.43
6837.3
6280.57
6246.7
5252.7
5353.17
5304.53
4551.43
4525.77
4338.2
4128.9
3749.27
3389.3
3197.67
3084.73
2979.7
2670.97
2532.13
2342.5
2278.27
2104.7
1912.37
1782.63
1681.27
1583.6
1484.9
1326.1
1287.53
1135.33
1088.63
1025.13
945.667
881.567
828.467
786.967
706.2
662.4
593.667
591.167
546.267
498.5
460.2
424.8
397.067
356.967
339.9
323.867
294.267
256.633
241
224.4
209.333
192.6
178.1
164.667
147.533
133.9
122.133
106.8
99.7333
88.4
82.6667
71.2333
65.8
54.4333
50.2
41.7667
35.2
31.2
24.6
20.1333
13.5667
9851.13
9753.37
9655.8
9560.4
9464.03
9372.17
9278.9
9187.43
9065
9006.03
8919.53
8775.93
8741.43
8564.43
8433.63
8432.97
8156.83
8027.5
8045.03
7826.73
7528.97
7548.67
7502.4
7096.3
6990.23
6281.87
5711.17
5650.6
5246.53
5166.73
4888.93
4639.13
4220.13
4125.3
3579.73
3538.37
3362.83
3089.87
2911.4
2745.1
2563.63
2410.07
2276.7
2085.97
2003.97
1831.37
1742.63
1574.7
1487.43
1425.4
1297.9
1241.07
1113.8
1021.07
992.767
888.833
829.967
789.467
710.967
679.633
619.833
596.733
533.467
494.267
476.433
422.267
406.533
374.933
350.067
323.567
291.7
260.9
258.7
235.167
211.3
207.433
173.633
161.967
146.667
133.067
119.733
115.567
102
91.8
82.9667
73.7
67.6
58.9333
48.4667
45.1
36.2
28.1
25.7333
17.9667
15.3667
9851.17
9752.83
9656.33
9559.63
9466.77
9370.37
9278.17
9185.97
9094.87
9005.57
8884.83
8794.73
8700.7
8581.37
8466.3
8377.87
8263.97
8173.9
7962.23
7676.6
7590.63
7371.2
7343.6
6794.37
6779.6
6835.9
6010.6
5507.3
5093.7
5023.9
4958.37
4620.17
4073.33
4032.13
3711.4
3464.6
3354.27
3148.33
2940.93
2748.97
2607.33
2381.73
2290.57
2180.4
1970.33
1807.87
1737.33
1594.47
1505.9
1408.97
1307.43
1237.77
1115.57
1054.17
979.4
891.467
867.533
788.4
711.833
676.833
651.1
598.767
549.4
508.1
474.533
432.5
402.8
378.567
339.3
322.333
291.733
269.333
254.133
233.133
205.7
195.067
184.133
169.367
150.133
136.233
130.133
114.6
99.5
94.2
78.8333
71.3
63.1
60.9667
50.3
42.8667
34.7
30.1333
24.1333
19.4
15.8
9851.2
9753.33
9656.3
9559.93
9465.87
9371.67
9276.67
9187
9096.27
9004.27
8884.97
8828
8741.97
8652.63
8517.37
8318.6
8120.93
8126.97
8087.97
7658.87
7610.23
7547.63
7021.87
7122.5
6577.2
6374.47
6039.67
5977.17
5306.1
5361.1
4767.97
4490.07
4539.83
3890.93
3772.6
3596
3271.4
3085.77
2921.3
2738.8
2646.37
2464.37
2308.2
2203.8
2014.3
1838.9
1732.2
1637.03
1473.1
1397.43
1315.03
1255.7
1134.87
1078.87
1003.27
947.867
863.267
794.3
746.967
698.4
639.9
585.6
542.033
494.3
483.833
421.7
415.333
385.233
357.133
324.167
299.4
274.333
254.433
226.933
207.267
190.867
175.967
166.733
151.233
139.533
125.1
119.6
103.367
95
81.7
75.7
65.7
56.8333
47.3
43.1667
34.1667
28.4667
24.8667
19.8667
14.5333
9851.4
9753.43
9655.77
9560.13
9465.03
9371.07
9277.23
9188.03
9094.43
8976.13
8916.73
8827.57
8744.5
8657.3
8531.97
8486.37
8258.43
8144.87
8013.73
7880.63
7538.73
7274.77
7226.8
6869.43
7050.5
6934.7
6492.8
5934.67
5419.67
5199.53
4942.97
4711.67
4686.03
3862.13
3783.47
3647.67
3379
3086.27
3129.13
2758.87
2612.17
2457.77
2326.13
2199.33
2008.73
1899.83
1750.73
1623.9
1546.23
1424.23
1294.93
1249.53
1164.17
1097.57
990.2
930.167
846.2
785.967
772.967
698.833
629.167
606.3
584.8
508.567
496.733
437.2
416
381.1
358.233
324.433
299.767
286
257.7
241.133
216.133
195.933
179.133
166.767
153.267
144.9
125.533
111.267
108.467
92.9667
81.1
75.6667
64.3
56.5
48.1
39.7667
39.7333
29.5667
24.5333
19.4
14.6667
9850.97
9753.27
9656.33
9560.07
9465.37
9370.4
9277.53
9184.93
9094.43
9006.57
8856.8
8828.3
8735.8
8646.1
8447.67
8405.5
8237.77
8221.77
8077.2
7628.07
7663.4
7601.17
7420.33
7139.5
6816.43
6556.8
6456.07
5795.63
5745.1
5416.8
4732.07
4792.5
4741.97
4127.53
3850.23
3623.93
3485.97
3213.9
2865.5
2804.73
2695.67
2548.4
2301.03
2154.17
2028.3
1913.33
1756.8
1633.3
1549.37
1452.03
1331.3
1262.17
1155.93
1106.67
990.3
924.133
891.933
813.633
757.433
714.5
664.1
601.633
571.633
534.533
497.3
448.067
421.9
393.367
362.833
322.833
300.2
289.7
262.533
236.833
217.733
201.767
183.767
166.267
154.833
140.8
123.667
110.6
106.133
98.4667
83.5
74.1333
59.2
58.7
49.4667
39.4
38.8
30.6667
25.3667
19.7667
15.8333
9851.3
9753.3
9656.27
9559.83
9449.33
9371.3
9278.5
9187.33
9094.7
9003.6
8877.47
8829.63
8649.07
8654.3
8567.7
8428.47
8298.6
8216.87
7970.37
7796.5
7521.83
7366.6
7296.17
6923.77
6780.87
6880.53
6151.57
6151.97
5377.5
5142.1
4988.87
4654.27
4204.93
4351.17
3856.93
3731.57
3397.8
3184.07
2988.5
2813.4
2620
2490.6
2323.63
2217.83
2044.6
1877.07
1765.4
1668.9
1591.77
1439.53
1349.07
1266.7
1180.27
1091.7
1009.47
925.1
896.533
822.033
744.967
716.967
679.033
632.833
572.333
489.267
473.9
442.433
420.6
391.167
363.033
330.067
300.367
284.333
260.2
240.133
227.867
202.233
187.333
173
154.233
139.633
129.233
115
102.933
92.9667
86.3
76.4
65.8
53.5333
52.3667
45.6
37.4333
29.6667
27.1667
18.6667
15.4
9851.3
9753.17
9656.03
9559.57
9464.37
9371.57
9278.4
9187.13
9095.43
8971.9
8917.9
8825.33
8740.97
8656.4
8512.67
8436.6
8239.63
8204.7
8073.2
7867.43
7576.1
7376.73
7110.87
6967.07
6462.83
6432.7
6733.3
5612.67
6114.13
5326.67
5008.97
4665.03
4342.53
4251.3
3967.9
3634.2
3601.67
3256.3
3010.53
2906.23
2654.73
2487.43
2318.57
2228.73
2062.37
1943.63
1800.67
1689.6
1575.13
1484.97
1345.8
1261
1207.9
1083.17
1048.67
947.467
889.867
823.467
760.3
713.933
674.667
612.967
571.167
536.8
499.6
438.067
421.967
373
355.067
324.433
303.667
279.633
268.733
243.5
227.3
205.533
183.8
166.833
151.7
144.433
133.1
117.733
107.867
97.6667
84.4
75.7667
70.3333
58.1
50.2667
45.0667
36.0333
28.4333
24.0333
19.9667
15.2667
9851.17
9752.73
9655.87
9559.57
9465.3
9371.73
9278.27
9185.3
9071.17
9004.43
8918.57
8786.07
8741.37
8621.53
8453.03
8426.67
8324.5
8256.93
7979.2
7934.23
7669.03
7581.87
7424.7
6822.57
6645.73
6598.57
6537.17
5921.43
5867.47
5039.57
4968.7
4736.37
4393.17
4151.8
3860.27
3609.5
3436.6
3234.67
3010.37
2836.13
2721.17
2470.67
2336.67
2184.9
2039
1918.5
1810.53
1735.17
1586.57
1474.5
1353.83
1296.33
1221.6
1105.17
1025.57
974.7
912.767
819.5
753.533
712.533
670.167
615.733
564.467
552.233
487.8
438.433
422.2
383.833
352.467
339.667
301.7
284.4
265.1
236.967
219.833
202.933
187.2
171.4
152.333
141.7
126.4
115.733
104.4
101.267
85.0667
77.2667
65.1
54.8667
51.5
44.2333
37.6333
33.7667
23.8
18.9333
15.1667
9851.3
9753.03
9655.33
9560.5
9464.57
9372.27
9280
9187.1
9095.23
9006.73
8919.5
8828.4
8740.37
8656.47
8569.43
8438.43
8279.33
8162.57
7933.57
7818.73
7707.8
7576.7
7009.67
7019.1
6473.33
6476.57
6022.77
6261.27
5665.67
5168
5214.93
4731.1
4723.3
4038.4
4081.63
3696.6
3501.27
3347.17
2999.1
2863.27
2752.67
2547.2
2448.1
2284.33
2155.17
1970.8
1865.8
1737.67
1630.73
1451.8
1405.7
1277.83
1214.07
1089.63
1021.13
936.667
878.033
834.867
762.033
714.7
659.1
613.3
576.067
532.333
487.9
450.9
415.233
383.167
363.6
337.967
310.733
280.5
261.267
247.333
220.5
205.6
186.833
168.133
159.1
143.133
132.633
117.233
107.5
93.7333
86.4333
76.6333
66.3
61.5333
52.6333
44.4333
36.2667
31.9
25.1
19.9667
14.6
9850.83
9752.97
9656
9560.03
9464.5
9372.07
9277.57
9186.23
9096.53
9006.33
8914.27
8827.57
8741.1
8648.53
8406.53
8428
8302.37
8277.77
8113.3
7716.27
7653.8
7614.2
7439.43
7233.3
6738.47
6523.83
6351
5954.17
5621.03
5244.33
4865.27
4763.33
4279.17
4196.17
4111.8
3671.2
3392.87
3249.9
3054.2
2928.4
2698.3
2606.9
2370.6
2305.77
2149.87
1943.77
1797.17
1744.3
1605.77
1491.8
1417.87
1272.27
1206.2
1095.2
1039.6
960.133
878.067
853.3
763.1
705.433
675
595.667
575.033
522.1
496.867
450.567
428.267
402.367
379.633
336.267
311.1
287.9
263.333
245.567
231.667
204.633
194.733
172.533
162.333
141.7
130.467
118.667
109.167
98.3667
85.4
79.5667
68.6333
58.6667
54.5333
47.5667
37.5333
31.2333
25.0333
21.2667
14.6667
9850.87
9753.13
9656.37
9561.17
9465.03
9370.77
9279.7
9184.97
9097.17
9003.4
8916.03
8826.73
8738.2
8652.8
8532.9
8478.83
8335.67
8268.57
8065
7836.9
7467.8
7670.43
7343.03
7246.67
6733.23
6685.3
6331.13
5874.67
5994.57
5635.2
5273.17
4572.63
4622.53
4169.87
3948
3726.1
3422.47
3367.43
3106.27
2980.37
2627.3
2575.1
2415.33
2242.13
2157.2
1951.43
1774.13
1755.97
1666.87
1492.63
1399.57
1307.33
1217.5
1131.47
1022.7
1006.2
900.933
817.233
805
758.1
671.5
629.9
590.833
553.467
486.567
459.767
434
394.533
360.133
340.267
312.267
288.8
273.733
241.933
223.3
214.133
186.733
177.467
160.2
146.433
133.933
126.467
107.8
95.5
87.4
80.3667
70.6333
60.9
52.6
42.2667
36.9
31.7333
25.8
19.5667
14.3333
9851.03
9752.73
9655.73
9560.3
9464
9370.3
9276.63
9187.9
9094.3
9006.37
8914.3
8792.6
8741.93
8621.47
8519.6
8346.57
8192.4
8185.2
8051.13
7835.23
7641.07
7561.4
7411.97
7205.53
6991.03
6593.57
6275.8
5856.4
5970.47
5504.6
5027.3
4729.2
4353.07
4435.97
4032.83
3658.97
3503.1
3221.3
3237.07
2884.77
2711.03
2543.77
2387.43
2245.27
2067.97
1991.53
1836.03
1711.97
1623.93
1524.67
1379.67
1307.03
1201.87
1113.87
1039.93
980.8
889.667
831.767
762.867
721.067
681.7
605.6
567.067
545.367
496.167
463.567
427.067
397.333
369.1
333.767
303.133
287.033
267.567
241.567
230.733
206.467
185.867
177.833
159.2
151.033
135.367
119.133
103.9
93.1333
85.6
75.7333
68.8333
62.6
56.8
44.2333
37.8
33.1333
28.7
19.8667
15.7
9851.03
9752.8
9656.03
9560.47
9465.03
9370.17
9280.17
9185.43
9095.43
9004.3
8913.37
8827.73
8738.73
8613.87
8541.47
8389.2
8197
8120.07
8158.43
7632.37
7638.23
7556.5
7383.4
7238.5
6959.33
6634.37
6410.27
6149.8
5600.77
5432.9
5275.5
4616
4564.77
4260.63
4026.8
3659.97
3516.37
3474.2
3303
3009.17
2722.13
2580.33
2397.13
2275.27
2142.57
2042.63
1875.4
1702.73
1597.07
1463.73
1426.97
1315.93
1213.67
1175.53
1054.07
1002.97
917.7
857.233
805.4
721.933
691.933
625.633
577.167
536.633
495.233
468.3
438.2
391.833
357.8
339.167
316.967
291
267.467
248.633
233.467
217.667
194.8
179.5
159
149.4
133.333
119.1
108.833
96.4667
85.3333
77.9667
70.1667
59.5333
51.3667
45.3667
39.4333
31.9333
25.7
21.0667
15.5667
9851.03
9752.97
9655.2
9560.1
9463.6
9370.03
9277.87
9186.23
9064.57
9005.73
8915.03
8828.4
8741.8
8612.6
8567.4
8430.13
8405.3
8046
8022.43
7844.03
7581.93
7389.7
7393.33
7275.67
6938.3
6249.2
6423.63
6102.13
5424.6
5423.87
5068.77
5004.33
4487.73
4523.83
3815.67
3732.53
3816.3
3294.53
3118.8
2872.13
2824.77
2606.1
2391.8
2297.73
2134.33
1965.2
1881.63
1755.03
1591.8
1530.03
1390.9
1265.3
1240.77
1138.53
1025.3
944.567
932.533
834.567
821.433
718.633
691.533
628.233
592.567
557.133
505.9
474.9
419
398.1
364.2
342.733
311.167
292.1
267.467
244.1
225.567
209.8
185.367
178.567
161.633
143.633
130.967
116.667
112.067
99.8333
89.0333
76.4333
70.4
63.6
51.4
43.1333
38.7333
30.9
25.4667
19.2667
14.6333
9850.97
9752.87
9655.4
9560.47
9465.13
9371.03
9277.7
9187.77
9062.73
9006.03
8914.67
8825
8699.53
8607.17
8572.13
8407.27
8290.83
8224.1
8233.5
8040.93
7723.77
7494.73
7403.73
7068.43
6914
6654.13
6314.3
5626.77
5517.7
5239.13
4931.77
5351.2
4368.63
4222.63
4066.23
3701.83
3503.53
3274
3110.3
3017.23
2705.07
2606.2
2381.6
2309.8
2151.43
2005.07
1823.93
1794.83
1665.2
1483.47
1419.5
1320.8
1228.17
1147
1070.2
980.7
908.2
858.767
804.767
729.967
700.767
619.933
596.867
548.633
499.967
465.1
428.067
402.533
367.533
345.933
309.6
290.9
276.967
257.433
227.3
209.3
197.733
175.833
163.067
149.1
129.6
125.967
109.233
101.567
88.8667
78.2
68.1333
63.5333
49.2333
44.3667
39.8667
31.4
23.8667
20.4
17.7
9851.43
9752.93
9656.5
9559.7
9466.77
9371.5
9278.83
9185.4
9064.9
9006.87
8916.47
8794.03
8653.27
8621.7
8569.7
8436.73
8358.23
8158.77
8058.4
7951.43
7781.07
7563.77
7602.53
7249.67
7209
6394.13
6441.23
6528.03
5955.53
5615.37
5443.87
4886.5
4314.93
4165.27
3991.87
3981.67
3437.1
3402.03
3129.73
2894.53
2756.63
2604.63
2460.7
2321.27
2144.97
2013.6
1873.37
1746.67
1645.13
1536.77
1415.73
1294.3
1250.97
1174.83
1067.53
952.867
912.567
813.867
805.967
736.567
690.7
630.667
610.2
531.9
514.567
478.733
423.767
404.033
369.233
337.633
323.033
292.133
273.767
251.3
223.233
210.3
193.967
171.733
161.167
146.367
139.067
126.367
107.867
98.7667
86.2
77.3667
68.6667
60.3667
54.3333
45.9667
38.5333
32.1
26.3333
20.5667
15.1667
9851.27
9752.6
9656.4
9560.2
9464.27
9369.33
9278.57
9186.63
9095.07
9004.1
8914.27
8796.03
8740.4
8614.03
8569.13
8395.03
8356.9
8237.2
8064.8
7987.6
7825.23
7385.23
7300.23
7452.03
6805.9
6739.97
6263.6
5717.13
6314.2
5576.63
5114.3
4904.5
4525.33
4241.3
3993.9
3841.5
3688.17
3567.3
3146.1
2920.47
2688.27
2667
2378.57
2287.63
2136.13
2003.13
1875.6
1743.03
1608.47
1555.53
1439.73
1338.53
1242.7
1175.17
1083.1
980.433
924.567
864.5
803.7
722.767
672.667
637.433
594.1
556.667
495.367
472.1
433.133
416.967
382.333
338.5
328.3
297.333
275.067
253.733
232.1
205.233
196.167
174.3
169.6
151.333
133.5
122.5
113.5
93.4
83.4
77.9333
67.9
57.9333
55.0333
48.7333
40
32.6333
27.5667
20.0333
15.3667
9851.27
9753.03
9656.07
9560.67
9464.67
9372.3
9277.8
9185.87
9096.67
9005.27
8917.23
8781.63
8741.67
8608.2
8489.57
8216.13
8339.93
8195.5
7972.33
7980.13
7884.4
7429.57
7282.43
7161.97
7036.07
6694.5
6527.13
6471.8
5774.8
5650.1
4939.27
4915.17
4448.13
4429.5
4016.17
3738.07
3767.17
3380.9
3146.6
2907.53
2821.13
2566.63
2459.3
2249.5
2144.87
2019.77
1866.8
1792.67
1619.73
1530.13
1438.93
1328.07
1264.8
1126.93
1115.17
998.6
951.767
883.267
806.167
752.233
686.933
627.267
614.233
555.1
507.633
493.4
434.267
412.333
384.1
354.167
316.533
290.4
270.667
253.3
227.033
206.567
190.167
183.6
161.7
140.267
132.867
124.233
112.2
96.2333
89.1
80.5667
71.3333
63
53.8667
47.4
38.6333
31.7
28.3667
22.1
15.8
9851
9753.1
9656.5
9561.1
9465.17
9370.53
9279.53
9185.6
9097.17
9007.4
8877.23
8827.5
8740.57
8653.7
8470.57
8486.8
8395.13
8155.03
8115
7925.17
7732.7
7686.97
7315.87
7236.5
7106.87
6909.1
6244.53
6009.47
5986.9
5611.13
5206.9
4691.33
4163.8
4217.8
4140.63
3803.6
3656.67
3336.47
3261.47
2991.37
2907.43
2641.07
2487.47
2337.03
2149.2
2060.93
1877.4
1806.47
1669.43
1542.37
1413.47
1331.87
1245.63
1151.93
1086.4
964
902.933
859.567
831.867
739.667
699.467
646.5
608.233
534.867
502.567
462.767
431.967
395.9
376.2
345.767
330.867
289.333
268.333
251.667
216
213.967
192.533
175.2
162.967
143.633
139.6
124.4
110.967
96.4
91.5333
77.6667
66.9
58.7333
57.4333
46.3667
35.6333
33.3
25.7333
21.1
16.4
9851.17
9753.2
9656.57
9561.23
9464.23
9372.77
9277.27
9160.1
9093.67
9005.17
8913.47
8826.33
8696.7
8613.87
8524.2
8488.07
8355.3
8212.3
7886.77
7936.6
7520.9
7495.13
7367.13
6952.27
6685.17
6944.93
6510.77
6214.1
5480
5251.7
5664.97
4771.93
4697.13
4479.67
4116.1
3738.13
3551.8
3449.6
3201.93
2936.17
2813.27
2539.5
2410.43
2245.6
2171.33
2062.97
1880.3
1791.4
1639.6
1513.5
1483.73
1299.7
1270.53
1153.33
1080.37
1009.97
921.6
868.267
813.133
755.8
699.1
649.6
627.967
551.867
520.933
485.5
442
389.833
376.367
346.967
314.867
305.567
271.167
240.133
234.133
209.667
192.4
170.733
167.1
149.633
135.633
125.433
109.967
100.933
91.3667
81.3
73.6667
65.5
52.4
50.5
39.5
32.7
29.0667
20.5
16.2
9851
9753.43
9657
9559.67
9464.67
9370.13
9278.5
9185.53
9096.2
9005.6
8916
8790.63
8739.73
8655.73
8492.7
8384.83
8343.7
8056.03
8071.03
8007.97
7875.5
7626.47
7403.1
7404.33
7210.2
6328.03
6035.1
6527.2
6045.33
5368.77
5121.7
5007.8
4568.77
4315.5
4254.2
3735.87
3586.73
3293.1
3165
2982.27
2742.47
2590.37
2467.87
2258.87
2149.3
2034.5
1852.77
1740.13
1656.2
1571.07
1436.77
1333.97
1249.03
1154.6
1041.53
1020.8
924.633
917.3
795.4
781.067
689.133
651.6
591.867
549.733
519.6
463.267
437.667
397.6
383.133
354.1
333.367
296.567
271.833
253.9
229.9
205.933
195.067
174.933
157.1
147.333
140.6
123.3
108.167
99.2
90.8667
78.9667
70.2333
61.4667
51.5
46.8667
39.8333
34.4
26.7667
20.6
16.4333
9851.17
9753.37
9655.07
9560.87
9463.83
9370.97
9278.47
9186.33
9095.2
9007.4
8916.23
8797.23
8695.13
8599.57
8509.6
8488.7
8343.1
8204.57
8113.6
7873.73
7819.37
7693
7272.93
7095.7
6797.73
6696.63
6486.73
6235.7
5631
6025.23
5259.6
4838.37
4325.87
4265.77
3940.17
3973.27
3790.17
3365.1
3163.93
2951.6
2759.4
2666.07
2381.5
2317.77
2087.1
1945.2
1923.77
1798.1
1680.37
1567.07
1413.17
1337.23
1244.17
1173.97
1119.33
1014.9
951.933
852.967
782.933
762.167
726
643.833
594.733
582.667
511.667
505.7
439.1
415.5
372.4
355.367
318.867
294.2
273.467
252.733
239.767
214.367
198.133
177.8
167.367
146.667
133.533
121.767
112.367
97.9667
88.0333
78.6333
71.3
59.8
52.8333
45.3333
38.2333
34.3333
25.7
19.7333
14.1333
9850.93
9753.6
9656.47
9559.33
9465.5
9370.63
9275.73
9185.2
9095
9005.87
8915.5
8825.7
8637.6
8655.1
8522.83
8430.97
8403.27
8219.1
8131.67
7939.4
7676.27
7478.07
7451.9
6983.33
6755.1
6580.8
6585.83
5916.3
5856.93
5538.7
5332.93
4950.87
4409.8
4213.07
3904.37
3802.13
3593.17
3429.6
3244.57
3022.23
2770.17
2617.7
2484.27
2294.87
2128.83
2051.47
1900.8
1795.3
1654.07
1551.6
1460.97
1376.6
1258.63
1189.53
1087.67
1021.7
976.467
862.8
788.767
749.5
683.5
644.1
637.5
568.867
527.9
478.567
445.933
401.167
374.333
357.533
324.867
297.133
282.967
251.467
232.667
213.833
194
172.533
164
151.533
135.267
124.367
110.933
99.5333
92.3
76.3667
69.0667
59.6
54.5333
46.9
40.4667
33.4
25.4
21.1
14.8
9851.17
9752.97
9656.2
9559.7
9465
9370.47
9278.1
9185.1
9096.4
9003.5
8916.83
8790.57
8735.5
8564.73
8489.33
8484.73
8362.5
8172.23
7932.07
8093.53
7694.27
7532.9
7263.37
6918.23
6834.77
6893.57
6374.07
6000.2
6197.43
5288.37
5348.4
5146.23
4767.63
4490.47
4118.17
3665.53
3618.2
3349.57
3128.77
2892.9
2768.23
2653.67
2418.07
2289.47
2249.67
2041.2
1931.03
1743.27
1634.93
1544.97
1428.23
1368
1246.23
1176.57
1088.03
979.633
937.467
866.533
802.333
760.267
701.3
663.433
612.933
549.333
509.7
471.9
431.367
414.467
362.133
357.3
330.133
292.833
272.433
252.633
236.867
213.833
189.967
177.1
165.633
144.933
139.633
126.167
110.3
98.1667
95.1
78.2
70.4667
63.7667
55.4
44.6
40.7
34
26.2333
20.5333
15.9
9850.9
9753.53
9656.57
9560.3
9465
9371.27
9278.17
9185.6
9093.77
8960.07
8876.83
8828.87
8742.63
8653.63
8490
8396.03
8347.5
8213.63
7988.9
8048.07
7630.93
7710.23
7380.7
7134.07
7277.1
6837.33
6742
6269.57
5648.5
5790.73
5257.67
4968.93
4603.7
4293.8
4398.13
3865.63
3525.23
3498.93
3163.23
3051.27
2837.97
2623.97
2478.77
2282.53
2229.17
1992.13
1923.67
1792.7
1603.13
1563.3
1462.37
1334.4
1274.97
1149.57
1106.77
1015.8
911.633
859.033
831.433
747.133
710.267
645.033
608.333
558.233
522.767
484
443.367
415.133
385.3
348.967
312.9
290.133
272.367
256.6
239.5
206.867
192.133
185.167
163.533
141.867
139.767
125.833
113.767
99.8
89.2333
81.7667
73.4667
62.2667
52.4667
45.7667
42.6667
33.5
26.4333
20.0667
16.1667
9851.37
9752.57
9656.37
9560.4
9464.4
9371.77
9278.97
9156.4
9095.53
9005.9
8918.93
8826.23
8742.83
8655
8498.63
8487.07
8247.33
8145.97
8078.83
8035.77
7773.3
7584
7320.83
7354.47
7324.97
6352.63
6766.47
6369.77
5924.13
5312.63
5192.53
5090.9
4567.67
4437.97
4146.7
3840.2
3546.23
3550.6
3108.2
2913.03
2930.5
2684.97
2543.03
2314.47
2195
2097.73
1902.5
1785.37
1638.67
1555.33
1436.47
1322.17
1236.33
1162.73
1065.77
1002.43
922.5
875
805.233
750.767
728.7
641.333
590.767
561.3
514.167
474.167
446.5
411.267
376.933
348.467
306.433
307.867
279.6
256.7
235.633
213.2
196.133
171.367
164.167
145.3
133
121.4
113.6
100.2
89.6667
82.6333
74.7333
63.6667
52.1333
46.0667
40.0667
32.8333
27.7
22
15.6
9851.03
9753.13
9655.97
9559.83
9465.7
9371.53
9277.33
9185.87
9092.43
9004.83
8865.97
8828
8740.77
8609.53
8524.83
8402.93
8349.87
8266.13
8110.27
7899.9
7892.43
7700.33
7355.57
7049.27
7267.5
6946.37
6038
6048.67
6017
5690.43
5439.17
4978.17
4371.67
4278.63
4414.97
3777.07
3730.73
3393.5
3141.1
2981.43
2752.3
2789.4
2448.9
2359.57
2209.83
1974.6
1939.57
1821.07
1690.4
1560.17
1459.67
1360.4
1286.57
1190.77
1102.7
1018.67
921.767
888
817.833
770.867
689.867
642.167
609.667
568.367
517.967
491.433
442.433
407.867
387.767
340.2
326.4
301.267
266.3
255.433
245.167
219.667
194.167
174.633
162.2
150.5
137.767
124.767
112.733
103.4
87
80.7667
72.5333
59.4
53.1333
46.9667
37.8
32.0333
26.2333
21.5667
17.0333
9851.03
9752.97
9656.43
9559.77
9465.47
9369.83
9277.53
9186.97
9094.27
8983.97
8913.8
8824.77
8739.63
8654.4
8562.93
8371.23
8388.1
8267.23
8062.57
8095.53
7734.03
7530.5
7561.17
7076.07
6847.07
6932.7
6689.77
6136.57
6721.37
5425.47
4888.57
5232.67
4234.73
4244.07
4084.07
3870.77
3512.63
3356
3137.23
3002.57
2814.97
2574.37
2507.23
2314.87
2237.93
2100.4
1933.6
1782.63
1649.53
1540
1460.6
1371.67
1287.37
1197.37
1081.53
1012.27
973.4
869.833
805.1
746.867
695.733
658.733
607.767
559.8
533.767
488.133
434.567
402.133
381.933
354.533
324.067
303.233
266.933
248
225.967
217.6
196.267
181.4
168.233
154.167
133.033
130.1
112.467
98.4333
89.4667
81.0667
68.5
63.0667
54.4
44
40.8333
33
26.8333
21.5667
17
9851.17
9753.17
9656.77
9560.73
9465.4
9371.67
9278.13
9186.83
9094.07
9004.77
8915.27
8828.37
8730.33
8612.3
8522.1
8410.7
8312.2
8203.4
8023.47
7979.3
7965.77
7728.63
7352.53
7036.37
7080.7
6351.87
6460.57
5978.87
5730.77
5596.97
5596.6
4881.63
4540.6
4416.77
4073.1
3836.73
3573.8
3320.93
3216.03
3050.53
2806.6
2644.3
2500.8
2333.93
2177.3
2057.37
1956.17
1756.07
1701.13
1564.1
1460.57
1349.03
1260.93
1185.83
1121.37
1003.63
949.967
898.567
788.767
746.6
684.2
675.4
599.033
546.3
523.467
488.8
446.933
402.967
375.167
341.333
322.133
302.6
273.433
260.267
229
215.467
191.833
183.133
166.133
146.467
135.233
128.133
110.033
96.6667
90.8667
80.7333
71.1667
62.5
52.2
46
40.2
32.9333
26.4
21.4667
16.2333
9851.03
9753.13
9655.77
9559.7
9464.9
9370.87
9277.83
9186.03
9095.77
9004.8
8880.63
8790.07
8700.63
8603.9
8571.1
8293.9
8400.57
8211.17
8085.37
7916.53
7701.07
7858.77
7722
7303.97
6919.9
6437.7
6726.4
6202.77
5634.8
5165.63
5307.87
5236.27
5281.9
4720.07
3918
3659.6
3578.97
3611.37
3163.23
3003.03
2869.07
2681.07
2479.4
2358.93
2188.97
2002.2
1933.47
1753.63
1676.1
1563.37
1432.23
1346.27
1271.93
1177.83
1070.77
988.333
971.067
893.9
818.767
760.633
706.6
666.867
609
555.1
535.933
483.333
462
429.433
378.4
348.633
323.3
293.6
274.233
249.533
232.5
218.567
201.567
179.367
164.467
154.6
136.4
123.467
110.833
99.8667
95.4
76.0667
70.1667
66.0333
54.3333
45.9333
38.9333
32.8667
26.8
21.8333
15.9
9851.13
9753.2
9657.03
9559.77
9464
9372.23
9279.27
9184.87
9093.87
8968.2
8917.77
8830.3
8739.07
8657.1
8569.9
8440.27
8404.5
8110.2
7929.57
8108.23
7689.67
7606.07
7246.03
7093.2
7125.43
6649
7108.73
6029.57
5593.4
5798.27
5204.43
4919
4710.53
4708.9
4165.6
3763.9
3676.57
3330.13
3178.3
3004.4
2834.2
2743.13
2548.87
2320.97
2175.63
2078.57
1894.57
1802.37
1637.03
1561.8
1477.23
1341.83
1243.5
1194.23
1121.2
1005.17
927.333
890.3
821.533
782.1
698.367
646.133
598.333
549.5
510.8
487.467
453.467
413.233
381.733
363.4
339.333
297.967
278.367
255.5
223.6
205.7
192.033
175.167
168.267
150.5
133.1
125.6
109.667
104.933
88.1
80.1
70.0333
61.0667
52.1
44
38.8
31.5667
23.7
20.6
16.5333
9851.13
9753.33
9656.53
9558.5
9465.3
9371.47
9278.87
9187.1
9093.93
9006.33
8878.43
8829.43
8700
8628.37
8518.27
8484.37
8362.33
8267.8
8239.8
8090.07
7705.83
7655.33
7599.23
7297.67
6837.17
6718.2
6722.77
6347.4
5736.33
5445.83
5392.3
5153.9
4498.6
4088.07
4042.87
3867.67
3544.6
3379.07
3109.3
2905.97
2975.4
2685.2
2495.77
2269.87
2197.5
2064.1
1963.87
1815.43
1723.63
1555.47
1436.2
1399.6
1232.23
1148.8
1081
1032.63
983.4
883.8
834.633
747.7
668.2
649.567
612.933
573.733
533.667
479.8
442.367
417.767
382.967
345.433
312.633
303.7
279.6
253.567
234.233
215.933
196.267
179.367
168.7
149.867
140.9
125.667
107.033
100.967
87.9667
78.5333
70.3333
58.5333
55.0333
45.6
40.4
31.9667
26.2667
20.0667
15.8667
9851.17
9752.97
9655.9
9560.8
9464.67
9370.17
9277.17
9187
9094.8
9006.57
8871.27
8828.27
8740.7
8656.23
8514.9
8382.67
8352.63
8113.07
8179.1
7876.37
7753.07
7562.23
7512.7
7468.63
7040.2
6729.87
6374.4
6353.67
6053
5648.8
5327.43
5149.07
4744.3
4436.5
4176.4
3791.27
3647.53
3382.97
3263.43
2994.07
2816.37
2623.9
2455.23
2464.17
2213.63
2050.4
2007.8
1817.7
1632.57
1578.83
1436.07
1377.47
1265.87
1172.23
1130.33
1009.4
965.867
889.667
815.567
755.833
712.9
648.367
606.5
575.6
520.533
481
452.5
410.6
382.767
365.133
332.567
298.5
286.567
253.433
235.767
218.633
196.133
179.933
174.033
151.367
136.2
127.367
113.467
100.7
90.9
80.1
69.4333
58.6
53.2667
46.3
38.9
33
27.1
21.9
17.9333
9851.17
9753
9656.77
9559.43
9465.33
9369.73
9277.87
9185.97
9096.33
9007.37
8916
8792.13
8704.67
8625.83
8570.73
8444.03
8358.27
8219.97
8173.77
8144.87
7786
7692.5
7404.03
7417.5
6735.47
6665.77
6298.8
6291.43
5920.47
5655.13
5099.53
4773.13
4606.97
4330.8
4356.47
3840.43
3652.33
3475.67
3316
3047.67
2793.9
2671.37
2514.6
2298.77
2227.87
2042.23
2015.6
1801.87
1668.03
1594.77
1481.93
1379.4
1289.23
1189.37
1074.03
1022.43
943.333
882.133
780.9
743.533
707.733
661.067
582.8
551.967
519.533
495.867
442.4
408.3
391.6
367.833
336.967
290.133
281.267
270.267
241.133
211.367
197.733
177.833
164.567
144.967
137.633
122.767
112.233
102
90.2333
80.2667
69.6667
62.3333
57.4333
45.2
37.3667
34.5
25.9333
20.4
15.3
9850.7
9752.7
9656.67
9560.1
9465.63
9370.63
9277.37
9186.5
9094.87
8976.43
8916.37
8785.2
8739.4
8653.03
8534.33
8442.97
8365.47
8169.07
7981.43
7811.63
7774.97
7680.03
7478.8
7165.5
6759.27
7147.77
6447.53
6175.3
6382.37
5687.1
5075.9
4747.1
4597.17
4270.27
3928.7
3656.37
3499.5
3335.33
3155.97
3008.23
2909.57
2680.3
2485.2
2316.37
2235.53
2033.77
1884.73
1823.07
1658
1578.57
1442.47
1346.13
1234.93
1228.37
1080.17
1017.2
953.933
871.167
817.567
774.667
709.267
646.833
597.667
559.967
529.767
473.6
442.6
403.7
386.933
346.167
334.433
308.7
275.8
251.467
238.133
214.5
205.8
180.2
169.733
152.333
135.133
121.667
113.067
99.2333
89.6667
81.0667
69.7333
61.5
52.0667
47.0667
40.4667
33.8333
25.6333
20
17.1333
9850.97
9753.27
9655.8
9559.77
9465.33
9371.73
9278.23
9186.37
9094.17
9002.23
8915.73
8827.9
8739.13
8656.2
8521.03
8382.13
8400.73
8258.8
8122.47
7897.7
7703.17
7411.57
7519.03
7437.6
6931.33
7121.27
6603.9
5848.17
5801.23
5835.93
5627.9
4812.07
4564.83
4412.9
4362.3
3629.47
3457.07
3519.87
3135.4
3047.43
2866.1
2650.6
2555.5
2360.9
2242.1
2110.07
1927.4
1810.8
1683.63
1574.23
1448.37
1401.23
1251.43
1187.57
1082.17
1067.8
942.567
895.133
812.133
762.8
714.967
667.1
613.933
561.633
516.767
468.967
446.767
424.867
388.267
353.467
312.667
296.9
274.033
249.467
230
220.333
193.367
179.867
161.7
148.433
132.1
120.1
110.233
101.233
88.5
78.0333
73.5333
62.3667
54.1667
46.9333
39.4333
33.3667
27.6333
19.6667
16
9851.3
9753.77
9656.37
9559.8
9465.23
9370.07
9277.47
9186.5
9096.53
9002.23
8915.2
8829.03
8676.07
8653.63
8570.47
8434.83
8254.53
8156.67
8089.8
8053.4
7637.03
7545.9
7468.47
7421.03
7137.73
6985.03
6814.73
5826.17
5797.77
5514.37
5361.6
5281.73
5090.93
4563
4042.27
3921.53
3690.57
3463.97
3271.03
2947.67
2748.5
2705.4
2459.4
2340.07
2188.17
2131.93
1974.57
1787.7
1713.83
1593.6
1413.67
1363.63
1300.33
1187.03
1085.3
1005.9
959.667
885.6
804.467
745.833
691.7
644.033
603.167
554.333
517.967
489.1
439.067
419.4
385.9
351.233
324.967
302.467
273.833
249.833
240.533
216.067
197.667
184.067
167.533
149.233
134.4
118.767
119.1
107.2
90.6667
79.0667
70.8333
62.0667
53.7667
49.7667
41.3333
30.5
25.4667
21.1
14.3333
9850.9
9753.27
9656
9559.47
9465.23
9369.7
9277
9186.83
9096.03
9005.03
8918.1
8826.47
8742.27
8611.2
8568.83
8433.57
8398.3
8263.57
8132.77
7939.1
7601.93
7655.6
7609.13
7173
6775.13
6503
6220.97
6088.37
5644.1
5234.7
5011.83
5162.9
4359.2
4188.47
4044.8
3747.57
3591.1
3385.4
3112.07
2937.47
2987.17
2665.37
2530.5
2289.83
2222.1
2029.37
1935.33
1794.47
1685.93
1594.67
1438.13
1351.5
1274.07
1178.27
1125.43
1039.1
957.3
886.9
843.967
771.167
694.667
650.067
625
552.633
504.4
475.667
447.1
416.5
367.967
356.267
339.167
309.1
277.767
250.833
237.167
227.5
201.933
180.367
163.933
152.167
132.5
128.8
113.033
100.467
88.2667
84.9
71.8667
63.3
52.0667
46.1333
40.5
33.1
26
21.3667
15.4333
9851.03
9752.73
9655.5
9559.9
9464.73
9372.13
9280.33
9186.07
9096.23
9004.73
8888
8829.57
8736.13
8555
8568.23
8396.83
8352.03
8124.37
8169.87
7843.63
7696.3
7571.47
7617.77
7122.77
6798.27
6692.3
6318.2
6063.7
5821.27
5465.3
5153.07
4900.57
4531.93
4318.27
3895.37
3840.73
3612.57
3364.83
3185.77
2963.27
2819.97
2709.3
2512.63
2415.7
2234.1
2088.93
1937.33
1823.67
1708.63
1545.2
1464.63
1368.1
1257.8
1181.77
1140.1
1001.9
958.433
876.433
809.233
777.033
714.167
655.6
620.467
559.167
530.5
485.6
439
415.167
369.133
355.3
322.533
300.533
273.333
260.267
241.167
224.267
207.3
187.1
164.033
152.1
142
123.033
110.1
103.5
92.3
80.5333
71.8667
64.5
52.8
48.1667
39.9667
33.5667
26.7667
24.0667
16.9667
9851.1
9753.4
9655.67
9560.07
9465.7
9371.33
9277.2
9183.97
9094.87
9006.47
8914.93
8791.73
8741.87
8656.47
8532.1
8398.87
8403.8
8202.17
8178.97
7866.8
7855.33
7757.13
7503.87
7200.6
7304.37
6745.3
6673.93
6159.07
5677.3
5780.93
5176.57
4825.1
4633.7
4262.17
4248.1
3815.87
3774.37
3396.33
3235.5
3062.57
2896.83
2737.37
2414.03
2351.63
2208.8
2074.4
1892.23
1767.47
1674.83
1570.13
1468.83
1386.4
1248.9
1166.4
1111.07
1036.87
997.533
874.7
817.467
761.033
677.3
670.533
612.867
581.633
529.767
490.967
448.6
412.233
393.133
357.133
339.033
302.133
276.133
258.2
223.767
212.933
199.3
184.6
163.933
157.133
134.167
129.733
113.433
96.0333
94.7667
81.0333
71.5333
62.5333
55.6667
45.5667
40.3667
32.4333
26.2667
20.1333
16.0333
9851.1
9753.2
9656.2
9559.67
9465.67
9370.5
9278.5
9184.97
9095.3
9003.33
8915.13
8829.13
8704.5
8655.97
8568.63
8443.3
8309.17
8241.97
8069.33
7847.6
7756.1
7474.6
7510.57
7593.4
6747.9
6825.83
7013.5
6302.43
5746.13
5694.4
5021.27
5014.7
4907.67
4572.43
3902.6
3819
3651.93
3265.33
3193.27
3001.83
2805.47
2711.77
2504.07
2383.33
2178.43
2115.57
1910.87
1797.07
1706.83
1605.47
1492.37
1392.53
1265.47
1174.27
1066.07
1050.3
926
896.3
823.367
766.633
682.8
669.4
586.433
572.933
524.967
492.933
438.367
428.9
385.967
358.4
324.133
303
275.333
254.467
229.267
217.633
195.033
188.6
172.3
147.2
137.3
129.867
110
102.3
89.3
79.3667
76.3
63.5
56.8333
45.4
38.6667
32.3
25.4
20.6
15.2
9851
9753.43
9655.97
9560.1
9464.6
9371.2
9278.23
9185.63
9094.53
9004.23
8917.73
8747.93
8738.43
8551.5
8568.6
8286.43
8300.53
8211
8141.23
8000.73
7817.33
7533.27
7781.23
7375.1
6851.47
6933.23
6327.1
6272.33
5956.57
5551.33
5148.47
5106.5
4684.27
4422.8
4161.37
3866.9
3924.97
3448.67
3185.23
2973.33
2803.87
2786.23
2571.43
2360.2
2221.6
2049.4
1919.63
1772.8
1744.03
1546.57
1459.17
1348.1
1271.87
1188.57
1098
1006.23
932.733
888.833
831.267
766.533
702.433
671.6
605.7
550.433
501.5
484.533
436.167
414.733
387.133
359.3
335.667
299.7
271.667
241.067
229.333
212.2
204.5
179.2
162.8
153.767
137.567
120.133
115.767
99.3333
88.3333
81.3
69.8
64.6667
55.4
44.5
40.3667
34.1333
29.3
20.9
15.3
9851.1
9753.13
9656.2
9560.23
9465.73
9370.93
9277.8
9185.53
9093.67
9006.1
8916.43
8829.4
8702.23
8656.57
8529.77
8354.7
8257.13
8290
8158.23
8034.77
7791.43
7651.3
7481.57
7129.7
6958.17
6669.5
6501.57
6026.03
5737.83
5639.2
5154.97
4839.9
4645.47
4175.2
4203.93
3806.27
3634.63
3557.9
3133.8
2924.7
2763.57
2611.77
2468.87
2395.8
2140.9
2058.67
1902.4
1810.4
1706.5
1573.77
1495.07
1374
1253.13
1172.37
1112.73
1012.93
968.733
871.233
820.7
743.367
706
647.2
610.567
568.467
512.733
495.033
453.167
406.867
381.267
355.767
334.8
300.567
273.467
249.267
236.3
215.833
193.833
187.633
168.133
147.2
134.733
128.833
111.633
99.1
90.8667
80.5333
71.0667
59.4
58.3667
45.7
38.7667
32.8667
26.8
20.8333
14.9333
9851
9752.97
9655.4
9560.9
9464.6
9370.3
9277.9
9186.87
9094.53
9003.8
8913.13
8786.03
8741.47
8654.93
8521.73
8419.27
8373.57
8261.2
8012.43
7910.57
7715.6
7607.73
7606.7
7070.23
6996.63
6620.93
6675.03
5982.8
6099
5498.8
5378.17
5480.07
4557.77
4652.93
4009.43
4040.87
3528.93
3579.27
3183.77
2986.03
2857.4
2651.1
2580.77
2363.27
2259.47
2121.73
1949.23
1758.47
1680.67
1596.87
1426.27
1350.37
1289.47
1195.27
1124.13
1007.8
939.667
866.367
809.933
771.6
694.8
670.567
608.5
584.267
524.267
486.167
453.333
416.967
380.4
354.367
338.033
299.2
270.767
265.433
232.233
211.467
197.5
186.5
168.467
149.933
135.133
118.333
116.067
102.233
91.6
79.0333
71.1667
63.7333
56.2333
46.9
39.7667
32.4
23.5
20.2667
16.4667
9851.3
9753.03
9656.13
9559.67
9465
9370.83
9279.17
9185.57
9094.83
9004.33
8914.07
8828.9
8703.07
8577.03
8501.1
8489.07
8401.03
8247.9
8033.1
7978.73
7775.9
7610.87
7454.67
6982.43
6835.6
6650.7
6150.03
6278
5710.8
5829.3
5018.37
4859.23
4937.73
4490.53
4100.5
4015.97
3768.87
3332.9
3188.7
3017.57
2785.27
2833.33
2471.63
2397.17
2168.87
2033.37
1896.37
1765.2
1665.17
1547.97
1467.73
1317.6
1238.63
1163.37
1142.23
1050.07
983.667
888.8
834.933
758.067
684.467
657.733
597.467
569.867
523.167
483.8
445.833
428.233
378.533
356.3
316.333
296.867
278.233
260.3
235.3
220.033
197.667
183.733
169.767
155.6
132.033
123.6
112.4
102.5
92.0667
77.7
69.4
59.5333
52.9667
48.3
39.6333
33.6667
27.9
20.2
14.2333
9850.7
9752.73
9655.63
9559.8
9464.97
9371.87
9278.83
9185.87
9096.7
8971.33
8914.4
8786.43
8703.53
8655.7
8572.43
8480.87
8337.7
8273.97
8115.17
8080.93
7738.17
7587.27
7141.23
7090.93
7224.3
6350.3
6161.97
6047.37
5844
5758.2
5446.07
5108.4
4380.43
4353.2
4279.4
3867.43
3613.93
3605.47
3205.87
2976.07
2748.23
2669.5
2585.03
2334.13
2227.77
2044.9
1925.3
1797.87
1644.8
1577.53
1476.13
1341.4
1270.8
1195.53
1085.67
1008.27
927.833
879.133
797.4
768.7
745.733
665.267
593.067
552.167
524.3
486.2
431.7
418.733
370.833
354.7
334.6
306.867
278.1
253.867
242.5
211.133
201.467
179.267
176.467
147.467
131.167
127.167
109.533
104.533
91.2333
79.0333
68.6333
63.5333
49.8333
47.6
39.2
32.2333
27.4667
21.2
15.1333
9850.93
9752.97
9655.57
9559.83
9464.53
9371.7
9277.4
9187.13
9094.27
9007.1
8916.03
8829.83
8718.4
8655.3
8572.53
8394.53
8356.63
8203.4
8011.17
7898.57
7590.43
7595.77
7272
7200.23
6880
6456.67
6546.63
6152.53
5954.9
5531.5
5322.73
5101.27
4432.1
4255.8
4088.77
3780.77
3505.43
3414.2
3254.83
2947.8
2863.33
2665.93
2496.6
2350.23
2213.33
2094.73
1881.3
1734.97
1676.63
1538.6
1448.23
1371.7
1271.7
1193.37
1061.23
1006.83
976.733
877.867
802.333
731.533
721.467
640.333
631.333
564.633
546.667
496.467
421.733
398.467
391.3
358.2
327.533
296.533
272.533
257.833
235.967
218.733
202.5
175.733
165.767
157.6
136.233
123.6
114.667
103.033
87.4667
78.1333
71.1667
63.3
53.2
45.2333
39.2
34.8
26.8
22.2333
15.2667
9851.23
9752.9
9656.33
9560
9464.67
9371.23
9279.43
9186.87
9094.23
9007.47
8888.23
8783.13
8743.23
8609.23
8521.3
8413.03
8357.27
8214.87
8133.4
8090.8
7672.77
7529.63
7516.7
7214.43
7005.93
6674.37
6860.23
5944.1
6046.3
5464.9
5482.8
5067.97
4633.3
4557.43
4265.9
3900.37
3504.23
3524.4
3305.67
3014
2864.27
2705.73
2520.93
2360.03
2180.43
2041.37
1926.3
1820.8
1709.23
1575.77
1487.53
1421.5
1266.23
1208.83
1152.4
1035.97
924.767
866.6
805.167
765.633
724.833
662.033
647.2
554.433
516.7
470.167
440.867
392.367
388.767
355.133
328.3
304.533
274.367
259.233
230.433
215.2
201.067
179.7
161.4
145.167
143.667
128.033
109.067
101.2
91.1333
78.0333
71.2333
59.3
55.7333
45.6333
38.8
32.3667
24.9667
21
16.6333
9851.23
9752.9
9655.8
9560.43
9466.27
9371.5
9279.03
9186.13
9095.07
9006.07
8915.2
8828.47
8743.43
8654.57
8511.23
8396.43
8260.5
8213.73
7937.73
7959.97
7744.93
7493.87
7605.93
7287.27
7138.13
6887.03
6723.73
6236
6091.93
5211.63
5517.1
4861.5
4587.97
4341.03
4196.57
3909.87
3625.2
3540
3163.17
3042.3
2811.77
2678.3
2456.33
2397.57
2231.27
2037.13
1912.03
1809.83
1676.17
1599.2
1473.07
1376.97
1285.97
1194.8
1110
1027.2
920.067
885.4
835.467
756.033
712.333
653.033
608.433
560.033
519.133
482.467
448.6
417.733
385.233
350.067
341.6
316
276
260.9
233.6
217.033
188.367
179.167
169.367
151.167
135.667
123.133
114.1
101.433
91.0333
79.1333
72.3333
61.5667
53.7
44.6
39.4333
34.9
26.5333
22.3667
15.0667
9850.9
9753.27
9656.07
9560.53
9464.87
9371.1
9277.43
9185.3
9093.77
8973
8916.83
8828.43
8741.3
8652.8
8446.03
8452
8350.97
8278.53
8080.23
8058.4
7635.9
7625.43
7452.8
6967.27
6833
6905.4
6669.47
6214.37
5597.1
5777.23
5096.67
4760.37
4871.13
4381.97
4128.67
3913.33
3581.07
3426.13
3192.7
2999.37
2758.23
2603.27
2451
2350.97
2184.3
2075.57
1943.63
1780.17
1688.2
1583.07
1436.9
1386.23
1264.4
1174.93
1097.27
1051.13
933.8
903.2
845.8
741.767
728.167
636.867
608.3
572.933
525.9
486.633
449.833
408.967
383.5
358.833
336.833
299.867
280.367
247.233
237.333
218.267
202.9
181.833
168.9
149.7
137.967
128.567
111.9
101.6
87.0667
78.3667
73.4667
62.9333
52.9
49.2
38.0667
34.3
27.1667
19.5667
15.0667
9851
9753.07
9655.97
9559.9
9465.63
9370
9279.33
9185.03
9095.13
9004.77
8916.5
8827.47
8700.7
8655.3
8528.07
8367.83
8286.3
8264.6
8116.67
7990.53
7797.53
7493.2
7627.87
7420.83
7204.33
6718.6
6547.37
6350.33
5876.03
5460.43
4964.07
4814.63
4734.8
4575.8
4297.57
3798.4
3610.03
3314.93
3207.07
3029.73
2872.73
2662.9
2453.07
2435.8
2249.53
2067.7
1997.63
1803.27
1681
1566.33
1492.2
1401.73
1332.33
1205.7
1085.2
1016.27
947.9
905
814.667
756.8
699.333
675.267
607.467
562.7
524.5
473.167
455.2
411.667
373.233
357.8
329.233
298.267
281.333
253.3
245.933
227.733
198.533
182.433
166.733
150.333
143.6
125.933
111.067
105.733
87.0333
78.9333
69.4333
61.8333
55.7667
46.4
39.9333
33.8667
27.4
20.2333
16.5667
9851.13
9753.33
9657.17
9560.03
9465.97
9370.97
9276.7
9185.63
9093.9
9005.03
8919.73
8829.6
8740.03
8629.9
8481.2
8456.27
8314.83
8213.1
7964.43
7962.4
7695.37
7340.17
7134.07
7395.37
6646.97
6714.97
6741.93
5805.17
6082.33
5389.3
5088.5
4825.63
4639.37
4254.33
4185.63
3838.6
3618.97
3544.7
3165.13
2921.87
2878.03
2705.3
2489
2337.43
2197.67
2083.83
1967.53
1832.23
1673.63
1561.6
1458.07
1386.9
1273.6
1196.67
1112.97
1030.63
947.2
883.233
828.967
775.067
732.133
658
621
556.167
522.767
484.067
452.067
409.867
385.2
365.967
312.367
297.967
276.167
252.433
234.767
223.167
203.6
180.033
166.7
154.567
136.167
126.2
113.3
98.9667
92.8333
81.5
72.8
63.4
51.6333
43.8333
39.7333
32.0333
27.8667
21.1
15.7667
9851.13
9753.17
9656.4
9559.4
9439.9
9370.07
9278.27
9187.97
9092.2
9004.87
8914.27
8826.1
8696.77
8624.73
8431.17
8442.1
8353.7
8154.2
8010.67
7936.93
7622.33
7671.27
7532.87
7215.73
7319.7
6979.7
6340.87
5806.1
6089.97
5905.03
5198.3
4841.7
4686.63
4470.8
4007.97
3830.43
3804.9
3302.03
3233.97
2995.67
2847.37
2702.07
2487.43
2351.93
2225.97
2095.23
1960.67
1819.67
1654.4
1547.83
1506.27
1376.17
1244.9
1123.9
1085.17
1010.27
950.267
918.6
818.9
759.767
712.733
648.733
610.1
573.7
507.267
491
446.067
415.667
380.467
347.633
346.267
310.633
273.133
254.5
238.867
217.9
200.933
179.567
168.867
153.233
136.433
124.967
112.567
102.333
93.3333
77.4333
70.6
63.9667
51.7667
46.6667
40.7333
33.1
25.5667
20.5667
18.3333
9850.63
9753.07
9656.4
9560.4
9466.07
9371.17
9277.73
9183.67
9094.7
9006.47
8917.43
8827.23
8676.03
8567.77
8524.77
8452.23
8304
8196.47
8112.2
7984.8
7783.47
7699.47
7433.2
7463.17
6824.1
6540
6455.17
6217.43
5837
5501.27
5506.7
5063.73
4557.33
4566.6
4076.17
3746
3529.23
3419.83
3266.27
3013.23
2798.77
2617.3
2502.1
2315.73
2174.47
2025
2008.8
1784.63
1656.83
1606.93
1482.8
1335.07
1248.27
1186.87
1107.23
1023.6
954.9
886.767
803.367
757.067
731
650.8
620.6
583.233
542.867
487.733
456.467
430.767
392.033
337.9
324.733
295.467
272.033
252.367
231.1
211.633
190.7
185.067
164.6
148.867
144.367
114.8
114.233
101.767
93.2333
80.3333
69.8667
62.4667
57
46.9667
37.6
33.3333
26.4667
20.5667
15.0667
9851.13
9752.83
9655.93
9560
9465.17
9371.77
9278.7
9187.1
9095.6
9006.6
8918.07
8828.53
8663.1
8655.03
8567.77
8483.33
8240.3
8149.97
8087.17
8001.33
7657
7598.83
7216.43
7058.57
7059.53
6935.73
6084.33
6286.57
5941.93
5766.87
5254.87
5172.93
4926.97
4437.3
4264.4
3693.23
3865.93
3326.23
3431.6
2885.7
2778.4
2711.23
2453.03
2391.9
2169.63
1998.5
1897.77
1792.27
1726.27
1551.03
1453.8
1376.27
1287.77
1167.47
1096.37
984.3
946.533
890.7
806.167
756.433
709.533
656.9
612.1
567.533
516.6
478.767
467.233
421.333
372.033
359.967
324.1
299.767
290.8
254.067
242.033
216.633
198.767
186.167
165.467
149.333
136.533
122.767
114.6
105.6
88.7333
83.3667
68.3
58.8667
51.9333
47.0333
40.5667
33.9333
25.4
20.0667
14.6667
9851.03
9752.7
9656.73
9559.97
9466.03
9370.27
9279.07
9187.07
9062.8
9004.23
8915.47
8825.8
8742.17
8618.4
8519.67
8443.33
8280.6
8206.1
8057.07
7873.4
7766.93
7562.1
7658.97
7465.47
6865.97
6873.93
6191.6
6255.3
6299.7
5850.57
5627.13
4831.83
4815.4
4490
4202.23
3694.7
3607.43
3355.5
3348.73
2978.63
2850.37
2677.6
2482.03
2307.77
2209.97
2053.3
1868.37
1760.3
1700.2
1527.2
1510.5
1360
1276.17
1206.93
1132.17
1018.47
931.367
857.1
841.367
771.767
720.133
638.633
606.5
546.133
522.167
491.5
453.967
415.867
394.667
345.067
332.267
309.567
286.167
260.733
235.933
220.533
201.2
179.1
163.667
147.267
142.067
124.733
114.6
102.3
88.8667
79.8333
70.0667
65.4333
57.2
47.0667
42.9667
33.3333
26.2
19.1333
14.8667
9851.33
9752.87
9656.57
9558.8
9465.07
9371.47
9277.37
9185.77
9093.6
9006.43
8884.9
8731.83
8740.83
8613.83
8559.77
8434.53
8317.23
8209.83
8016.5
8096.9
7885.93
7875.6
7294.73
7330.7
6909.03
6804.53
6583.77
6526.27
5922.47
5653.2
5051.3
5070.57
4616.37
4203
4093.63
4025.07
3698.97
3351.67
3135.37
3036.37
2814.23
2691.43
2451.1
2401.43
2181
2129.17
1934.87
1796.23
1683.27
1561.77
1451.8
1348.33
1246.1
1191.13
1034.5
1049.17
957.1
885.467
823.967
759.167
702.567
665.667
610.467
566.333
532.933
491.5
445.767
408
393.967
353.767
330
301.567
280.733
253.933
242.133
222.467
201.533
176.6
162.9
158.2
140.833
123.233
112.933
96.7333
90.8333
79.3667
72.9333
60.8
54.6
43.2
40.2667
30.8
26.1667
23.0333
14.5667
9850.93
9752.87
9655.8
9560.07
9464.27
9372.13
9276.37
9188
9068.2
9005.77
8917.47
8788.2
8743.1
8608.37
8434.3
8485.7
8291.1
8215.5
8129.57
8045
7708.3
7858.83
7398.63
7001.87
7093.1
6420.83
6614.9
6522.9
5776.67
5313.57
5238.03
5003.37
4727.07
4320.13
4333.43
3985.8
3714.07
3388.83
3435.43
3009.7
2839.23
2709.6
2588.07
2287.07
2231.1
2062.07
1911.93
1781.83
1695.27
1575.67
1484
1389.93
1291.8
1163.1
1093.6
1033.27
932.067
856.933
836.2
751.8
692.667
672.033
616.233
569.667
531.633
484.9
455.1
412.867
393.3
358.933
328.5
291.3
278.033
253.067
238.333
214.4
192.633
184.1
168.533
154.767
138.7
123.767
109.7
98.9667
93.2
81.7667
71.1
64.8333
53.3333
49.0667
40.5
31.4
27
21.3667
16.2667
9851.37
9753.4
9656.13
9560.5
9463.23
9371.33
9278.97
9184.93
9095.63
9005.3
8837.2
8829.47
8739.03
8589.03
8529.9
8485.7
8289.87
8214.1
8024.17
7932.1
7923.33
7733.83
7305.87
7562.23
7309.83
6808.73
6444.33
6030.53
5887.1
5445.1
5506.93
5252.9
4741.63
4411.73
4067.8
3955.9
3749.27
3335.73
3129.57
3014.43
2848.73
2685.57
2521.83
2347.23
2196.1
2114.43
1919.93
1763.33
1675.5
1539.27
1472.13
1386.43
1277.03
1227.97
1097.5
1025.87
929.533
877.367
842.5
771.033
700.867
656.967
605
566.733
510.167
470.567
438.833
419.1
384.967
348.367
319.467
299.467
272.233
256.3
229.667
215.7
197.467
181.033
163.467
153.767
137.5
125.667
116.233
106.1
90.5333
77.7667
68.8
62.4
50.7
48.1667
40.1667
34.1667
26.8667
20.6333
15.3333
9851
9752.77
9656.23
9560.27
9464.5
9370.73
9277.57
9186
9069.6
9003.67
8917.53
8781.43
8738.87
8655.8
8567.43
8486.67
8333.83
8122.67
8072
8049.2
7631.93
7733.23
7270.23
7250.37
7198.17
6544.97
6428.1
6528.67
5722.5
5696.1
5312.17
4719.63
4558.67
4379.8
3878.23
3666.5
3745.73
3310.6
3186.33
3005.63
2811.63
2681.6
2505.97
2445.63
2208.77
2083.23
1896.33
1787.97
1694.07
1549.83
1488.03
1367.33
1251.23
1162.33
1129.47
1018.3
939.633
883.233
817.967
774.833
699.533
669.5
614.333
559.733
526.667
461.333
443.6
433.533
390.6
352.9
331.7
299.2
279.6
255.033
237.2
217.9
194.067
174.667
165.7
150
141.767
125.933
112.067
105.967
89.1
83.4
72.7667
64.2667
57.0333
50.1
39.2667
33.0333
27.2667
20.7
16.5
9850.97
9753.03
9655.47
9560.5
9465.27
9371.1
9278.43
9186.8
9070.7
9005.93
8916.83
8827.77
8740.6
8655.97
8537.8
8403.63
8344.6
8138.1
8129.3
7982.8
7784.33
7489.37
7469.4
7493.83
6793.3
6610.5
6304.17
5852.3
5886.07
5549.57
5488.9
5181.73
4596.57
4369.03
4092.6
3878.97
3541.9
3498.07
3199.27
3183.17
2873.67
2700.87
2487.73
2280.77
2192.8
2118.3
1981.8
1813.37
1680.2
1590.7
1448.13
1417.87
1306.17
1209.43
1092.33
1001.17
958.533
883.167
827.567
752.3
730.233
666.067
614.033
569.267
546.2
478.467
445.9
425.167
386.933
350.2
328
305.767
285.833
258.167
231.667
229.133
207.767
188.333
164.133
155.367
135
126.567
116.6
100.667
93.7333
78.6667
69.9333
62.2333
52.7667
48.7
39.5
34.1667
27.4667
19.3
15.4333
9851
9753.13
9656.73
9560.6
9465.6
9369.97
9278.33
9186.6
9095.73
9004.6
8914.47
8828
8690.47
8609.53
8437.03
8436.73
8403.8
8214.1
8026.23
8049.53
7889.57
7486.6
7198.4
7073.07
6656.03
7031.37
6446.57
5928.27
6103.83
5976.03
4906.37
4934.33
4794.23
4400.2
4554.83
3936.17
3771.17
3445.6
3294.53
3060.2
2797.2
2618.77
2509.43
2334.1
2241.67
2042.67
1960.43
1826.17
1650.07
1575.43
1446.47
1397.13
1282.3
1143.37
1144.93
1008.97
978.033
887.133
841.6
788.133
701.8
662.8
597.067
540.867
507.6
505.5
448.533
400.233
375.3
357.533
312.633
300.567
278.3
250.933
226.167
214.067
200.167
176.833
172.933
149.233
138.833
124
115.6
102.067
90.7333
83.9333
71.6667
63.5
53.0333
45.8
40.8
34
27.3
21.7333
15.2667
9850.83
9753.1
9656.1
9560.4
9465.07
9371.87
9278.03
9185.47
9093.4
8975.83
8913.63
8827.07
8690.43
8596.3
8523.87
8437.7
8273.77
8217.43
7969.7
7915.63
7648.17
7560.37
7353.13
7449.8
7287.37
7103.63
6361.33
6038.43
5543.6
5745.67
5090.13
5190.13
4700.03
4337.2
3968.77
3805.2
3657.93
3424.07
3148.8
3029.37
2817.87
2779.03
2483.63
2388.07
2142.67
2103.5
1920.93
1801.3
1637.1
1599.9
1444.5
1389.9
1326.07
1196.1
1093.13
1040.37
969.4
894.467
840.533
780.067
707.4
646.767
635.4
572.267
529.5
473.667
450.067
399.967
384.8
357.333
311.9
297.433
279.967
259.733
242.2
217.667
191.233
177.567
175.333
148.6
138.833
125.267
110.933
99.6667
94.9333
78.5333
69.1333
62.3333
54.6
47.7
39.4667
31.2
27
20.6
16.6667
9851.27
9753.3
9656.87
9560.27
9465.5
9371.37
9278.7
9187.7
9097.3
8983.83
8915.13
8790.37
8742.13
8652.03
8419.57
8489.63
8306.97
8099.5
8127.17
7985.87
7735.33
7445.07
7409.17
7202.03
7144.23
6779.3
6492.47
6115.53
5776.97
5277.4
5617.63
5016.9
4570.07
4251.4
4432.3
3838
3644.3
3467.27
3176.1
3039.1
2834.03
2761
2511.2
2276.7
2200.8
2045.37
1944.07
1816.33
1694.57
1552.43
1476.57
1362.9
1286.77
1164.67
1135.67
1024.67
949.433
899.9
804.1
748.033
714.433
671.767
587.867
557.067
513.9
473.067
456.733
403.367
378.067
348.2
326.567
304.867
284.133
264.867
231.533
223.067
199.933
189.4
168
150.367
133.233
123.867
112.033
98.5667
89.8667
79.2667
72.1667
63.5333
57.5667
46
41.8333
31.0667
25.9
21.2
16.1333
9850.83
9753
9656.3
9559.53
9465.43
9371.13
9280.37
9186.13
9094.73
9005.5
8917.67
8828.27
8737.47
8655.5
8536.2
8391
8301.2
8282.23
8085.17
7962.93
7682.67
7649.4
7470.93
7418.77
7002.13
6812.83
6471.57
6631.87
6016.53
5256.87
5429.5
4994.9
5144.5
4335.23
4075.9
3910.7
3550.6
3376.23
3128.13
2992.47
2870.33
2618.1
2542.87
2320.83
2248.17
2085.03
1965.1
1784.93
1722.73
1606.17
1480.8
1384.73
1267.77
1193.9
1139.13
1019.1
969.433
888.167
822.8
764.3
704.833
667.767
607.133
574.867
516.933
491.067
457.867
410.833
396.3
362.1
329.033
298.3
286.167
259.8
241.433
215.933
195.167
181.667
169.667
148.533
136.9
125.667
115.533
105.533
89.5333
76.8
70.7
61.8
51.0667
45.6333
41.0667
32.3667
27.9
21.8667
15
9850.97
9753.13
9655.53
9560.13
9465.3
9371.03
9278.17
9186.33
9095.6
9004.87
8915.43
8829.67
8694.43
8609.23
8525.1
8388.83
8305.43
8257.03
8129.17
7938.33
7648.97
7629.47
7282.47
7498.57
6983.07
6658.03
6329.8
5664.9
5831.93
5700.37
5234
4995.73
5045.73
4458.77
4093.63
3793.73
3677.47
3419.13
3072.8
3041.63
2824.27
2669.87
2523.07
2338.9
2238.1
2073.97
1939.97
1807.67
1675.8
1581.53
1473.27
1354.9
1296.1
1146.63
1130.2
1039.5
955.667
894.567
807.167
757.6
693.5
660.033
623.033
557.7
539.533
472.1
457.233
403.167
386.667
364.433
324.9
293.433
274.8
256.667
235.5
217
197.3
177.367
168.433
152.367
139.433
125.167
115.667
103.067
91.2667
80.6667
70.4667
63.5333
53.4
48.9667
40.5333
31.7667
26.4333
21.8333
15.9667
9851.13
9752.6
9656.6
9559.2
9465.23
9371.53
9275.93
9187.73
9066.3
9004.5
8919.33
8828.17
8741.17
8652.73
8470.43
8379.7
8356.23
8260.8
8111.13
7984.73
7786.57
7713.73
7297.73
7434.5
6628.23
6866.67
6580.4
6211.03
5522.77
5806.87
5298.23
4894.9
4682.57
4434.57
3873.8
4030.43
3574.17
3400.8
3300.93
2986
2763
2606.13
2593.8
2424.57
2164.03
2082
1954.23
1777.2
1716.53
1574.83
1455.5
1355.2
1300.07
1193.3
1094.17
1036.1
943.433
889.133
815.6
780.5
713.867
666.233
601.967
562.967
525.4
484.833
446.133
433.067
382.767
363.2
329.833
296.2
281.233
260.733
233.833
226.867
193.533
191.767
163.9
157.733
143.4
122.567
112.6
103.1
86.6
82.6667
69.4667
60.3
55.5
44
39.8667
34.9
27.3
20.0333
17.1
9850.87
9752.9
9655.4
9560.33
9464.43
9371.03
9276.27
9187.4
9096.13
9005.03
8915.17
8827.53
8742.67
8655.3
8493.9
8434.87
8368.43
8280.03
8007.67
7923.9
7620
7465.1
7345.9
6874.8
6931.3
7144.47
6236.33
6212.7
6029.3
5789.6
5363.67
5035.57
4604.2
4515.13
4078.53
4007.77
3497.33
3689.4
3198.83
2908.23
2799.47
2687.47
2505.27
2308.93
2247.77
2058.07
1996.43
1745.33
1676.43
1551.03
1460.9
1367.27
1310.23
1184.57
1100.7
1027.67
968.7
889.267
833.4
756.267
707.067
646.867
637.4
547.333
513.067
501.733
441.7
414.667
365.667
343.667
331.067
293.733
275.967
251.667
231.433
215.6
201.2
187.367
158.4
152.9
138.767
121.8
109.9
98.3
91.5333
80.3667
66.4667
61.4333
50.9667
46.8333
41.3
31.9
25.8667
19.9667
15.2
9850.93
9753.23
9656.53
9560.17
9465.53
9371.77
9277.57
9185.7
9097.03
9004.67
8917.7
8829.2
8740.73
8653.13
8525.8
8485.5
8346.47
8224.63
8145.17
8060.23
7832.63
7400.93
7313.73
7198.67
7071.03
6611.8
6551.93
6306.83
5811.77
5588.77
5155.77
5190
4854.67
4355.83
4172.57
3702.1
3530.8
3521.77
3362.3
3077.23
2868.77
2740.17
2524.4
2347.2
2181.23
2082.23
1915.67
1811.67
1673.5
1610.37
1476.43
1375.7
1233.9
1176.73
1109.87
1045.47
957.833
885.8
816.933
807.833
705.5
656.433
613
567.1
521.667
508.367
458.6
405.633
386.8
355.933
335.167
293.467
272.533
245.4
233.967
211.2
204.533
178
160.9
151.9
139
122.3
109.267
103.133
92.3333
83.3667
72.4333
61.0333
53.2
47.5667
40.8333
34.3333
29.8333
19.6667
16.7667
